 vasp.5.4.4.18Apr17-6-g9f103f2a35 (build Nov 30 2020 22:55:02) complex          
  
 executed on             LinuxIFC date 2023.08.07  23:03:32
 running on   40 total cores
 distrk:  each k-point on   40 cores,    1 groups
 distr:  one band on NCORES_PER_BAND=   4 cores,   10 groups


--------------------------------------------------------------------------------------------------------


 INCAR:
 POTCAR:    PAW_PBE Pt 04Feb2005                  
 POTCAR:    PAW_PBE Pt 04Feb2005                  
   VRHFIN =Pt: s1d9                                                             
   LEXCH  = PE                                                                  
   EATOM  =   729.1176 eV,   53.5886 Ry                                         
                                                                                
   TITEL  = PAW_PBE Pt 04Feb2005                                                
   LULTRA =        F    use ultrasoft PP ?                                      
   IUNSCR =        1    unscreen: 0-lin 1-nonlin 2-no                           
   RPACOR =    2.330    partial core radius                                     
   POMASS =  195.080; ZVAL   =   10.000    mass and valenz                      
   RCORE  =    2.600    outmost cutoff radius                                   
   RWIGS  =    2.750; RWIGS  =    1.455    wigner-seitz radius (au A)           
   ENMAX  =  230.283; ENMIN  =  172.712 eV                                      
   ICORE  =        3    local potential                                         
   LCOR   =        T    correct aug charges                                     
   LPAW   =        T    paw PP                                                  
   EAUG   =  358.966                                                            
   DEXC   =    0.000                                                            
   RMAX   =    2.658    core radius for proj-oper                               
   RAUG   =    1.300    factor for augmentation sphere                          
   RDEP   =    2.761    radius for radial grids                                 
   RDEPT  =    2.203    core radius for aug-charge                              
                                                                                
   Atomic configuration                                                         
   16 entries                                                                   
     n  l   j            E        occ.                                          
     1  0  0.50    -78401.1885   2.0000                                         
     2  0  0.50    -13770.7750   2.0000                                         
     2  1  1.50    -11931.0468   6.0000                                         
     3  0  0.50     -3234.7234   2.0000                                         
     3  1  1.50     -2699.2216   6.0000                                         
     3  2  2.50     -2119.5714  10.0000                                         
     4  0  0.50      -695.1528   2.0000                                         
     4  1  1.50      -519.6034   6.0000                                         
     4  2  2.50      -306.6786  10.0000                                         
     4  3  3.50       -70.1041  14.0000                                         
     5  0  0.50      -101.7747   2.0000                                         
     5  1  1.50       -55.9873   6.0000                                         
     5  2  2.50        -6.1423   9.0000                                         
     6  0  0.50        -5.6573   1.0000                                         
     6  1  1.50        -6.8029   0.0000                                         
     5  3  2.50        -1.3606   0.0000                                         
   Description                                                                  
     l       E           TYP  RCUT    TYP  RCUT                                 
     2     -6.1423404     23  2.500                                             
     2     -7.5029230     23  2.500                                             
     0     -5.6573207     23  2.500                                             
     0      0.7416693     23  2.500                                             
     1     -2.7211652     23  2.600                                             
     1     20.4087390     23  2.600                                             
     3     -1.3605826     23  2.500                                             
  local pseudopotential read in
  partial core-charges read in
  partial kinetic energy density read in
  atomic valenz-charges read in
  non local Contribution for L=           2  read in
    real space projection operators read in
  non local Contribution for L=           2  read in
    real space projection operators read in
  non local Contribution for L=           0  read in
    real space projection operators read in
  non local Contribution for L=           0  read in
    real space projection operators read in
  non local Contribution for L=           1  read in
    real space projection operators read in
  non local Contribution for L=           1  read in
    real space projection operators read in
    PAW grid and wavefunctions read in
 
   number of l-projection  operators is LMAX  =           6
   number of lm-projection operators is LMMAX =          18
 
 Optimization of the real space projectors (new method)

 maximal supplied QI-value         = 14.36
 optimisation between [QCUT,QGAM] = [ 11.92, 23.98] = [ 39.79,161.09] Ry 
 Optimized for a Real-space Cutoff    1.49 Angstroem

   l    n(q)    QCUT    max X(q) W(low)/X(q) W(high)/X(q)  e(spline) 
   2     10    11.920    66.195    0.79E-04    0.18E-03    0.24E-06
   2     10    11.920    64.643    0.81E-04    0.19E-03    0.24E-06
   0     11    11.920    95.520    0.28E-04    0.54E-04    0.18E-06
   0     11    11.920    63.403    0.27E-04    0.52E-04    0.17E-06
   1     10    11.920    19.961    0.18E-04    0.11E-03    0.23E-06
   1     10    11.920    13.289    0.25E-04    0.87E-04    0.19E-06
  PAW_PBE Pt 04Feb2005                  :
 energy of atom  1       EATOM= -729.1176
 kinetic energy error for atom=    0.0021 (will be added to EATOM!!)
 
 
 POSCAR: Pt111\(1\1\1)\(2)                       
  positions in direct lattice
  velocities in cartesian coordinates
 exchange correlation table for  LEXCH =        8
   RHO(1)=    0.500       N(1)  =     2000
   RHO(2)=  100.500       N(2)  =     4000
 


--------------------------------------------------------------------------------------------------------


 ion  position               nearest neighbor table
   1  1.000  0.000  0.056-   5 2.64   9 2.64  13 2.64  29 2.64  37 2.64  57 2.64  42 2.87  14 2.87
                            54 2.87
   2  0.333  0.167  0.178-  30 2.64  26 2.64  38 2.64  42 2.64  14 2.64   6 2.64  15 2.84   7 2.84
                            11 2.84   9 2.87  21 2.87  13 2.87
   3  0.167  0.333  0.297-  39 2.64  27 2.64  43 2.64   7 2.64  15 2.64  31 2.64  14 2.84   6 2.84
                            10 2.84  12 2.87   8 2.87  48 2.87
   4  0.000  1.000  0.419-   8 2.64  12 2.64  16 2.64  32 2.64  40 2.64  60 2.64  27 2.87   7 2.87
                            63 2.87
   5  1.000  0.250  0.056-   1 2.64  45 2.64  33 2.64   9 2.64  29 2.64  25 2.64  14 2.87  10 2.87
                            18 2.87
   6  0.333  0.417  0.178-  26 2.64  62 2.64  10 2.64  34 2.64  14 2.64   2 2.64  43 2.84   3 2.84
                            15 2.84  45 2.87  49 2.87   9 2.87
   7  0.167  0.083  0.297-  27 2.64  15 2.64   3 2.64  63 2.64  11 2.64  35 2.64  42 2.84   2 2.84
                            14 2.84  16 2.87   4 2.87  12 2.87
   8  0.000  0.250  0.419-   4 2.64  48 2.64  36 2.64  12 2.64  32 2.64  28 2.64  31 2.87   3 2.87
                            27 2.87
   9  0.250  0.250  0.056-  21 2.64  13 2.64  49 2.64   1 2.64  45 2.64   5 2.64   2 2.87  14 2.87
                             6 2.87
  10  0.083  0.417  0.178-  34 2.64   6 2.64  46 2.64  14 2.64  18 2.64  22 2.64  39 2.84  31 2.84
                             3 2.84  33 2.87  45 2.87   5 2.87
  11  0.417  0.083  0.297-  19 2.64  15 2.64   7 2.64  47 2.64  35 2.64  23 2.64  30 2.84  38 2.84
                             2 2.84  20 2.87  16 2.87  24 2.87
  12  0.250  0.250  0.419-  24 2.64  16 2.64  52 2.64   4 2.64  48 2.64   8 2.64   3 2.87  15 2.87
                             7 2.87
  13  0.250  0.000  0.056-  21 2.64   9 2.64  17 2.64   1 2.64  37 2.64  41 2.64  38 2.87   2 2.87
                            42 2.87
  14  0.083  0.167  0.178-  42 2.64  54 2.64   6 2.64   2 2.64  10 2.64  18 2.64  27 2.84   3 2.84
                             7 2.84   5 2.87   1 2.87   9 2.87
  15  0.417  0.333  0.297-  43 2.64   7 2.64   3 2.64  11 2.64  55 2.64  19 2.64  26 2.84   2 2.84
                             6 2.84  24 2.87  12 2.87  52 2.87
  16  0.250  1.000  0.419-  24 2.64  12 2.64  20 2.64   4 2.64  40 2.64  44 2.64   7 2.87  11 2.87
                            35 2.87
  17  0.500  0.000  0.056-  29 2.64  25 2.64  13 2.64  21 2.64  41 2.64  53 2.64  58 2.87  30 2.87
                            38 2.87
  18  0.833  0.167  0.178-  54 2.64  58 2.64  22 2.64  30 2.64  10 2.64  14 2.64  23 2.84  31 2.84
                            27 2.84  25 2.87  29 2.87   5 2.87
  19  0.667  0.333  0.297-  55 2.64  31 2.64  59 2.64  11 2.64  23 2.64  15 2.64  22 2.84  30 2.84
                            26 2.84  28 2.87  64 2.87  24 2.87
  20  0.500  1.000  0.419-  32 2.64  28 2.64  16 2.64  24 2.64  44 2.64  56 2.64  11 2.87  23 2.87
                            47 2.87
  21  0.500  0.250  0.056-  25 2.64  61 2.64   9 2.64  13 2.64  49 2.64  17 2.64  30 2.87   2 2.87
                            26 2.87
  22  0.833  0.417  0.178-  50 2.64  26 2.64  30 2.64  18 2.64  46 2.64  10 2.64  19 2.84  59 2.84
                            31 2.84  61 2.87  25 2.87  33 2.87
  23  0.667  0.083  0.297-  27 2.64  31 2.64  19 2.64  51 2.64  47 2.64  11 2.64  18 2.84  58 2.84
                            30 2.84  32 2.87  28 2.87  20 2.87
  24  0.500  0.250  0.419-  28 2.64  64 2.64  12 2.64  16 2.64  52 2.64  20 2.64  15 2.87  11 2.87
                            19 2.87
  25  0.750  0.250  0.056-  21 2.64  17 2.64  29 2.64  61 2.64  33 2.64   5 2.64  18 2.87  22 2.87
                            30 2.87
  26  0.583  0.417  0.178-   6 2.64   2 2.64  22 2.64  30 2.64  62 2.64  50 2.64  55 2.84  15 2.84
                            19 2.84  49 2.87  61 2.87  21 2.87
  27  0.917  0.083  0.297-  23 2.64   7 2.64   3 2.64  51 2.64  31 2.64  63 2.64  54 2.84  14 2.84
                            18 2.84   4 2.87   8 2.87  32 2.87
  28  0.750  0.250  0.419-  24 2.64  20 2.64  32 2.64  64 2.64  36 2.64   8 2.64  19 2.87  23 2.87
                            31 2.87
  29  0.750  0.000  0.056-  17 2.64  25 2.64   5 2.64  53 2.64   1 2.64  57 2.64  54 2.87  18 2.87
                            58 2.87
  30  0.583  0.167  0.178-   2 2.64  38 2.64  58 2.64  26 2.64  22 2.64  18 2.64  11 2.84  19 2.84
                            23 2.84  21 2.87  17 2.87  25 2.87
  31  0.917  0.333  0.297-  59 2.64  19 2.64  23 2.64  39 2.64   3 2.64  27 2.64  18 2.84  10 2.84
                            22 2.84   8 2.87  36 2.87  28 2.87
  32  0.750  1.000  0.419-  20 2.64  28 2.64   8 2.64  56 2.64   4 2.64  60 2.64  23 2.87  27 2.87
                            51 2.87
  33  1.000  0.500  0.056-  37 2.64  41 2.64   5 2.64  45 2.64  25 2.64  61 2.64  10 2.87  46 2.87
                            22 2.87
  34  0.333  0.667  0.178-  62 2.64  10 2.64  58 2.64  46 2.64   6 2.64  38 2.64  47 2.84  39 2.84
                            43 2.84  41 2.87  45 2.87  53 2.87
  35  0.167  0.833  0.297-  63 2.64  59 2.64   7 2.64  11 2.64  47 2.64  39 2.64  46 2.84  38 2.84
                            42 2.84  44 2.87  40 2.87  16 2.87
  36  0.000  0.500  0.419-  40 2.64  44 2.64   8 2.64  48 2.64  28 2.64  64 2.64  59 2.87  39 2.87
                            31 2.87
  37  1.000  0.750  0.056-  33 2.64  41 2.64  61 2.64  57 2.64  13 2.64   1 2.64  46 2.87  50 2.87
                            42 2.87
  38  0.333  0.917  0.178-  58 2.64  30 2.64   2 2.64  42 2.64  34 2.64  46 2.64  11 2.84  35 2.84
                            47 2.84  13 2.87  17 2.87  41 2.87
  39  0.167  0.583  0.297-   3 2.64  31 2.64  59 2.64  43 2.64  47 2.64  35 2.64  10 2.84  34 2.84
                            46 2.84  48 2.87  36 2.87  44 2.87
  40  0.000  0.750  0.419-  36 2.64  44 2.64  64 2.64  60 2.64  16 2.64   4 2.64  63 2.87  35 2.87
                            59 2.87
  41  0.250  0.750  0.056-  45 2.64  33 2.64  37 2.64  53 2.64  17 2.64  13 2.64  34 2.87  46 2.87
                            38 2.87
  42  0.083  0.917  0.178-  14 2.64   2 2.64  38 2.64  46 2.64  50 2.64  54 2.64   7 2.84  63 2.84
                            35 2.84   1 2.87  13 2.87  37 2.87
  43  0.417  0.583  0.297-  15 2.64   3 2.64  39 2.64  51 2.64  47 2.64  55 2.64  62 2.84   6 2.84
                            34 2.84  52 2.87  56 2.87  48 2.87
  44  0.250  0.750  0.419-  48 2.64  36 2.64  40 2.64  56 2.64  20 2.64  16 2.64  35 2.87  39 2.87
                            47 2.87
  45  0.250  0.500  0.056-  41 2.64  53 2.64   5 2.64   9 2.64  49 2.64  33 2.64   6 2.87  10 2.87
                            34 2.87
  46  0.083  0.667  0.178-  34 2.64  50 2.64  10 2.64  42 2.64  22 2.64  38 2.64  59 2.84  35 2.84
                            39 2.84  37 2.87  33 2.87  41 2.87
  47  0.417  0.833  0.297-  39 2.64  43 2.64  11 2.64  23 2.64  35 2.64  51 2.64  58 2.84  34 2.84
                            38 2.84  56 2.87  44 2.87  20 2.87
  48  0.250  0.500  0.419-  44 2.64  56 2.64   8 2.64  12 2.64  52 2.64  36 2.64  39 2.87   3 2.87
                            43 2.87
  49  0.500  0.500  0.056-  61 2.64  53 2.64  57 2.64  21 2.64   9 2.64  45 2.64  26 2.87   6 2.87
                            62 2.87
  50  0.833  0.667  0.178-  22 2.64  46 2.64  26 2.64  42 2.64  54 2.64  62 2.64  55 2.84  63 2.84
                            59 2.84  57 2.87  61 2.87  37 2.87
  51  0.667  0.833  0.297-  63 2.64  27 2.64  43 2.64  55 2.64  23 2.64  47 2.64  54 2.84  62 2.84
                            58 2.84  60 2.87  32 2.87  56 2.87
  52  0.500  0.500  0.419-  64 2.64  56 2.64  60 2.64  24 2.64  12 2.64  48 2.64  43 2.87  15 2.87
                            55 2.87
  53  0.500  0.750  0.056-  49 2.64  57 2.64  45 2.64  41 2.64  29 2.64  17 2.64  62 2.87  34 2.87
                            58 2.87
  54  0.833  0.917  0.178-  18 2.64  14 2.64  50 2.64  58 2.64  42 2.64  62 2.64  51 2.84  27 2.84
                            63 2.84  29 2.87   1 2.87  57 2.87
  55  0.667  0.583  0.297-  19 2.64  59 2.64  63 2.64  15 2.64  51 2.64  43 2.64  50 2.84  26 2.84
                            62 2.84  64 2.87  60 2.87  52 2.87
  56  0.500  0.750  0.419-  52 2.64  60 2.64  48 2.64  44 2.64  32 2.64  20 2.64  47 2.87  43 2.87
                            51 2.87
  57  0.750  0.750  0.056-  61 2.64  49 2.64  53 2.64  37 2.64   1 2.64  29 2.64  50 2.87  62 2.87
                            54 2.87
  58  0.583  0.917  0.178-  38 2.64  30 2.64  18 2.64  34 2.64  62 2.64  54 2.64  47 2.84  23 2.84
                            51 2.84  17 2.87  29 2.87  53 2.87
  59  0.917  0.583  0.297-  31 2.64  55 2.64  19 2.64  39 2.64  35 2.64  63 2.64  22 2.84  46 2.84
                            50 2.84  36 2.87  40 2.87  64 2.87
  60  0.750  0.750  0.419-  64 2.64  52 2.64  56 2.64  40 2.64   4 2.64  32 2.64  51 2.87  55 2.87
                            63 2.87
  61  0.750  0.500  0.056-  49 2.64  57 2.64  21 2.64  25 2.64  37 2.64  33 2.64  22 2.87  26 2.87
                            50 2.87
  62  0.583  0.667  0.178-  34 2.64   6 2.64  26 2.64  58 2.64  54 2.64  50 2.64  43 2.84  51 2.84
                            55 2.84  53 2.87  49 2.87  57 2.87
  63  0.917  0.833  0.297-  51 2.64  35 2.64  55 2.64   7 2.64  59 2.64  27 2.64  50 2.84  42 2.84
                            54 2.84  40 2.87   4 2.87  60 2.87
  64  0.750  0.500  0.419-  52 2.64  60 2.64  24 2.64  28 2.64  40 2.64  36 2.64  55 2.87  19 2.87
                            59 2.87
 
  LATTYP: Found a hexagonal cell.
 ALAT       =    10.5600004196
 C/A-ratio  =     1.8939393187
  
  Lattice vectors:
  
 A1 = (  10.5600004196,   0.0000000000,   0.0000000000)
 A2 = (  -5.2800002098,   9.1452286274,   0.0000000000)
 A3 = (   0.0000000000,   0.0000000000,  20.0000000000)


Analysis of symmetry for initial positions (statically):
=====================================================================
 Subroutine PRICEL returns following result:
 
  Warning from LATTYP: Got some problem with cell dimensions!
  Tried to take original basis but could not verify dimensions!
  LATTYP: Found a hexagonal cell.
 ALAT       =     2.6400002950
 C/A-ratio  =     7.5757567292
  
  Lattice vectors:
  
 A1 = (   1.3199997040,   2.2863075775,   0.0000000000)
 A2 = (   1.3200001686,  -2.2863075775,   0.0000000000)
 A3 = (   0.0000000000,   0.0000000000, -20.0000000000)
 
  16 primitive cells build up your supercell.
 

 Routine SETGRP: Setting up the symmetry group for a 
 hexagonal supercell.


 Subroutine GETGRP returns: Found  4 space group operations
 (whereof  2 operations were pure point group operations)
 out of a pool of 24 trial point group operations.


The static configuration has the point symmetry C_1h.
 The point group associated with its full space group is C_2h.


Analysis of symmetry for dynamics (positions and initial velocities):
=====================================================================
 Subroutine PRICEL returns following result:
 
  Warning from LATTYP: Got some problem with cell dimensions!
  Tried to take original basis but could not verify dimensions!
  LATTYP: Found a hexagonal cell.
 ALAT       =     2.6400002950
 C/A-ratio  =     7.5757567292
  
  Lattice vectors:
  
 A1 = (   1.3199997040,   2.2863075775,   0.0000000000)
 A2 = (   1.3200001686,  -2.2863075775,   0.0000000000)
 A3 = (   0.0000000000,   0.0000000000, -20.0000000000)
 
  16 primitive cells build up your supercell.
 

 Routine SETGRP: Setting up the symmetry group for a 
 hexagonal supercell.


 Subroutine GETGRP returns: Found  4 space group operations
 (whereof  2 operations were pure point group operations)
 out of a pool of 24 trial point group operations.


The dynamic configuration has the point symmetry C_1h.
 The point group associated with its full space group is C_2h.


Analysis of structural, dynamic, and magnetic symmetry:
=====================================================================
 Subroutine PRICEL returns following result:
 
  Warning from LATTYP: Got some problem with cell dimensions!
  Tried to take original basis but could not verify dimensions!
  LATTYP: Found a hexagonal cell.
 ALAT       =     2.6400002950
 C/A-ratio  =     7.5757567292
  
  Lattice vectors:
  
 A1 = (   1.3199997040,   2.2863075775,   0.0000000000)
 A2 = (   1.3200001686,  -2.2863075775,   0.0000000000)
 A3 = (   0.0000000000,   0.0000000000, -20.0000000000)
 
  16 primitive cells build up your supercell.
 

 Routine SETGRP: Setting up the symmetry group for a 
 hexagonal supercell.


 Subroutine GETGRP returns: Found  4 space group operations
 (whereof  2 operations were pure point group operations)
 out of a pool of 24 trial point group operations.


The magnetic configuration has the point symmetry C_1h.
 The point group associated with its full space group is C_2h.


 Subroutine INISYM returns: Found  4 space group operations
 (whereof  2 operations are pure point group operations),
 and found    16 'primitive' translations

 
 
 KPOINTS: mesh auto                               

Automatic generation of k-mesh.
Space group operators:
 irot       det(A)        alpha          n_x          n_y          n_z        tau_x        tau_y        tau_z
    1     1.000000     0.000000     1.000000     0.000000     0.000000     0.000000     0.000000     0.000000
    2    -1.000000   180.000000    -0.500000    -0.866025     0.000000     0.000000     0.000000     0.000000
    3    -1.000000     0.000000     1.000000     0.000000     0.000000     0.000000     0.000000    -0.525180
    4     1.000000   180.000000    -0.500000    -0.866025     0.000000    -0.000000    -0.250000    -0.525180
 
 Subroutine IBZKPT returns following result:
 ===========================================
 
 Found      3 irreducible k-points:
 
 Following reciprocal coordinates:
            Coordinates               Weight
  0.000000  0.000000  0.000000      1.000000
  0.500000 -0.000000  0.000000      2.000000
  0.500000  0.500000  0.000000      1.000000
 
 Following cartesian coordinates:
            Coordinates               Weight
  0.000000  0.000000  0.000000      1.000000
  0.047348  0.027337  0.000000      2.000000
  0.047348  0.082010  0.000000      1.000000
 


--------------------------------------------------------------------------------------------------------




 Dimension of arrays:
   k-points           NKPTS =      3   k-points in BZ     NKDIM =      3   number of bands    NBANDS=    420
   number of dos      NEDOS =    301   number of ions     NIONS =     64
   non local maximal  LDIM  =      6   non local SUM 2l+1 LMDIM =     18
   total plane-waves  NPLWV = ******
   max r-space proj   IRMAX =   8171   max aug-charges    IRDMAX=  35597
   dimension x,y,z NGX =    84 NGY =   84 NGZ =  160
   dimension x,y,z NGXF=   168 NGYF=  168 NGZF=  320
   support grid    NGXF=   168 NGYF=  168 NGZF=  320
   ions per type =              64
   NGX,Y,Z   is equivalent  to a cutoff of  13.22, 13.22, 13.30 a.u.
   NGXF,Y,Z  is equivalent  to a cutoff of  26.45, 26.45, 26.60 a.u.

 SYSTEM =  Pt111                                   
 POSCAR =  Pt111\(1\1\1)\(2)                       

 Startparameter for this run:
   NWRITE =      2    write-flag & timer
   PREC   = accura    normal or accurate (medium, high low for compatibility)
   ISTART =      0    job   : 0-new  1-cont  2-samecut
   ICHARG =      2    charge: 1-file 2-atom 10-const
   ISPIN  =      2    spin polarized calculation?
   LNONCOLLINEAR =      F non collinear calculations
   LSORBIT =      F    spin-orbit coupling
   INIWAV =      1    electr: 0-lowe 1-rand  2-diag
   LASPH  =      F    aspherical Exc in radial PAW
   METAGGA=      F    non-selfconsistent MetaGGA calc.

 Electronic Relaxation 1
   ENCUT  =  550.0 eV  40.42 Ry    6.36 a.u.  20.19 20.19 38.24*2*pi/ulx,y,z
   ENINI  =  550.0     initial cutoff
   ENAUG  =  359.0 eV  augmentation charge cutoff
   NELM   =    200;   NELMIN=  2; NELMDL= -5     # of ELM steps 
   EDIFF  = 0.1E-04   stopping-criterion for ELM
   LREAL  =      T    real-space projection
   NLSPLINE    = F    spline interpolate recip. space projectors
   LCOMPAT=      F    compatible to vasp.4.4
   GGA_COMPAT  = T    GGA compatible to vasp.4.4-vasp.4.6
   LMAXPAW     = -100 max onsite density
   LMAXMIX     =    2 max onsite mixed and CHGCAR
   VOSKOWN=      0    Vosko Wilk Nusair interpolation
   ROPT   =   -0.00025
 Ionic relaxation
   EDIFFG = -.5E-01   stopping-criterion for IOM
   NSW    =    300    number of steps for IOM
   NBLOCK =      1;   KBLOCK =    300    inner block; outer block 
   IBRION =      2    ionic relax: 0-MD 1-quasi-New 2-CG
   NFREE  =      1    steps in history (QN), initial steepest desc. (CG)
   ISIF   =      2    stress and relaxation
   IWAVPR =     11    prediction:  0-non 1-charg 2-wave 3-comb
   ISYM   =      2    0-nonsym 1-usesym 2-fastsym
   LCORR  =      T    Harris-Foulkes like correction to forces

   POTIM  = 0.5000    time-step for ionic-motion
   TEIN   =    0.0    initial temperature
   TEBEG  =    0.0;   TEEND  =   0.0 temperature during run
   SMASS  =  -3.00    Nose mass-parameter (am)
   estimated Nose-frequenzy (Omega)   =  0.10E-29 period in steps =****** mass=  -0.255E-26a.u.
   SCALEE = 1.0000    scale energy and forces
   NPACO  =    256;   APACO  = 16.0  distance and # of slots for P.C.
   PSTRESS=    0.0 pullay stress

  Mass of Ions in am
   POMASS = 195.08
  Ionic Valenz
   ZVAL   =  10.00
  Atomic Wigner-Seitz radii
   RWIGS  =  -1.00
  virtual crystal weights 
   VCA    =   1.00
   NELECT =     640.0000    total number of electrons
   NUPDOWN=      -1.0000    fix difference up-down

 DOS related values:
   EMIN   =  10.00;   EMAX   =-10.00  energy-range for DOS
   EFERMI =   0.00
   ISMEAR =     1;   SIGMA  =   0.10  broadening in eV -4-tet -1-fermi 0-gaus

 Electronic relaxation 2 (details)
   IALGO  =     68    algorithm
   LDIAG  =      T    sub-space diagonalisation (order eigenvalues)
   LSUBROT=      F    optimize rotation matrix (better conditioning)
   TURBO    =      0    0=normal 1=particle mesh
   IRESTART =      0    0=no restart 2=restart with 2 vectors
   NREBOOT  =      0    no. of reboots
   NMIN     =      0    reboot dimension
   EREF     =   0.00    reference energy to select bands
   IMIX   =      4    mixing-type and parameters
     AMIX     =   0.40;   BMIX     =  1.00
     AMIX_MAG =   1.60;   BMIX_MAG =  1.00
     AMIN     =   0.10
     WC   =   100.;   INIMIX=   1;  MIXPRE=   1;  MAXMIX= -45

 Intra band minimization:
   WEIMIN = 0.0010     energy-eigenvalue tresh-hold
   EBREAK =  0.60E-08  absolut break condition
   DEPER  =   0.30     relativ break condition  

   TIME   =   0.40     timestep for ELM

  volume/ion in A,a.u.               =      30.18       203.66
  Fermi-wavevector in a.u.,A,eV,Ry     =   1.132849  2.140774 17.460991  1.283347
  Thomas-Fermi vector in A             =   2.269551
 
 Write flags
   LWAVE        =      F    write WAVECAR
   LDOWNSAMPLE  =      F    k-point downsampling of WAVECAR
   LCHARG       =      F    write CHGCAR
   LVTOT        =      F    write LOCPOT, total local potential
   LVHAR        =      F    write LOCPOT, Hartree potential only
   LELF         =      F    write electronic localiz. function (ELF)
   LORBIT       =      0    0 simple, 1 ext, 2 COOP (PROOUT), +10 PAW based schemes


 Dipole corrections
   LMONO  =      F    monopole corrections only (constant potential shift)
   LDIPOL =      F    correct potential (dipole corrections)
   IDIPOL =      0    1-x, 2-y, 3-z, 4-all directions 
   EPSILON=  1.0000000 bulk dielectric constant

 Exchange correlation treatment:
   GGA     =    --    GGA type
   LEXCH   =     8    internal setting for exchange type
   VOSKOWN=      0    Vosko Wilk Nusair interpolation
   LHFCALC =     F    Hartree Fock is set to
   LHFONE  =     F    Hartree Fock one center treatment
   AEXX    =    0.0000 exact exchange contribution

 Linear response parameters
   LEPSILON=     F    determine dielectric tensor
   LRPA    =     F    only Hartree local field effects (RPA)
   LNABLA  =     F    use nabla operator in PAW spheres
   LVEL    =     F    velocity operator in full k-point grid
   LINTERFAST=   F  fast interpolation
   KINTER  =     0    interpolate to denser k-point grid
   CSHIFT  =0.1000    complex shift for real part using Kramers Kronig
   OMEGAMAX=  -1.0    maximum frequency
   DEG_THRESHOLD= 0.2000000E-02 threshold for treating states as degnerate
   RTIME   =   -0.100 relaxation time in fs
  (WPLASMAI=    0.000 imaginary part of plasma frequency in eV, 0.658/RTIME)
   DFIELD  = 0.0000000 0.0000000 0.0000000 field for delta impulse in time
 
 Orbital magnetization related:
   ORBITALMAG=     F  switch on orbital magnetization
   LCHIMAG   =     F  perturbation theory with respect to B field
   DQ        =  0.001000  dq finite difference perturbation B field
   LLRAUG    =     F  two centre corrections for induced B field



--------------------------------------------------------------------------------------------------------


 conjugate gradient relaxation of ions
 charge density and potential will be updated during run
 spin polarized calculation
 RMM-DIIS sequential band-by-band and
  variant of blocked Davidson during initial phase
 perform sub-space diagonalisation
    before iterative eigenvector-optimisation
 modified Broyden-mixing scheme, WC =      100.0
 initial mixing is a Kerker type mixing with AMIX =  0.4000 and BMIX =      1.0000
 Hartree-type preconditioning will be used
 using additional bands          100
 real space projection scheme for non local part
 use partial core corrections
 calculate Harris-corrections to forces 
   (improved forces if not selfconsistent)
 use gradient corrections 
 use of overlap-Matrix (Vanderbilt PP)
 Methfessel and Paxton  Order N= 1 SIGMA  =   0.10


--------------------------------------------------------------------------------------------------------


  energy-cutoff  :      550.00
  volume of cell :     1931.47
      direct lattice vectors                 reciprocal lattice vectors
    10.560000420  0.000000000  0.000000000     0.094696966  0.054673319  0.000000000
    -5.280000210  9.145228627  0.000000000     0.000000000  0.109346638  0.000000000
     0.000000000  0.000000000 20.000000000     0.000000000  0.000000000  0.050000000

  length of vectors
    10.560000420 10.560000420 20.000000000     0.109346638  0.109346638  0.050000000


 
 k-points in units of 2pi/SCALE and weight: mesh auto                               
   0.00000000  0.00000000  0.00000000       0.250
   0.04734848  0.02733666  0.00000000       0.500
   0.04734848  0.08200998  0.00000000       0.250
 
 k-points in reciprocal lattice and weights: mesh auto                               
   0.00000000  0.00000000  0.00000000       0.250
   0.50000000 -0.00000000  0.00000000       0.500
   0.50000000  0.50000000  0.00000000       0.250
 
 position of ions in fractional coordinates (direct lattice) 
   0.99999844  0.00000156  0.05579229
   0.33333173  0.16666826  0.17752397
   0.16666826  0.33333171  0.29729603
   0.00000156  0.99999844  0.41902774
   0.99999844  0.25000155  0.05579229
   0.33333172  0.41666827  0.17752397
   0.16666826  0.08333172  0.29729603
   0.00000155  0.24999844  0.41902774
   0.24999844  0.25000155  0.05579229
   0.08333172  0.41666827  0.17752397
   0.41666827  0.08333172  0.29729603
   0.25000155  0.24999844  0.41902774
   0.24999844  0.00000156  0.05579229
   0.08333172  0.16666826  0.17752397
   0.41666826  0.33333171  0.29729603
   0.25000156  0.99999844  0.41902774
   0.49999844  0.00000156  0.05579229
   0.83333168  0.16666826  0.17752397
   0.66666828  0.33333171  0.29729603
   0.50000156  0.99999844  0.41902774
   0.49999843  0.25000155  0.05579229
   0.83333168  0.41666827  0.17752397
   0.66666830  0.08333172  0.29729603
   0.50000154  0.24999844  0.41902774
   0.74999841  0.25000155  0.05579229
   0.58333168  0.41666827  0.17752397
   0.91666827  0.08333172  0.29729603
   0.75000152  0.24999844  0.41902774
   0.74999842  0.00000156  0.05579229
   0.58333166  0.16666826  0.17752397
   0.91666826  0.33333171  0.29729603
   0.75000153  0.99999844  0.41902774
   0.99999844  0.50000154  0.05579229
   0.33333171  0.66666826  0.17752397
   0.16666825  0.83333170  0.29729603
   0.00000155  0.49999843  0.41902774
   0.99999843  0.75000151  0.05579229
   0.33333173  0.91666828  0.17752397
   0.16666826  0.58333168  0.29729603
   0.00000154  0.74999840  0.41902774
   0.24999843  0.75000151  0.05579229
   0.08333173  0.91666828  0.17752397
   0.41666828  0.58333168  0.29729603
   0.25000154  0.74999840  0.41902774
   0.24999844  0.50000154  0.05579229
   0.08333171  0.66666826  0.17752397
   0.41666827  0.83333170  0.29729603
   0.25000155  0.49999843  0.41902774
   0.49999844  0.50000154  0.05579229
   0.83333171  0.66666826  0.17752397
   0.66666830  0.83333170  0.29729603
   0.50000155  0.49999843  0.41902774
   0.49999843  0.75000151  0.05579229
   0.83333170  0.91666828  0.17752397
   0.66666830  0.58333168  0.29729603
   0.50000154  0.74999840  0.41902774
   0.74999841  0.75000151  0.05579229
   0.58333168  0.91666828  0.17752397
   0.91666828  0.58333168  0.29729603
   0.75000152  0.74999840  0.41902774
   0.74999839  0.50000154  0.05579229
   0.58333166  0.66666826  0.17752397
   0.91666827  0.83333170  0.29729603
   0.75000150  0.49999843  0.41902774
 
 position of ions in cartesian coordinates  (Angst):
  10.55997578  0.00001422  1.11584590
   2.63997474  1.52421935  3.55047947
   0.00002535  3.04839473  5.94592065
  -5.27997557  9.14521440  8.38055470
   9.23997574  2.28632132  1.11584590
   1.31997457  3.81052657  3.55047947
   1.32002541  0.76208763  5.94592065
  -1.31997541  2.28629287  8.38055470
   1.31997542  2.28632132  1.11584590
  -1.32002553  3.81052657  3.55047947
   3.96002563  0.76208763  5.94592065
   1.32002469  2.28629287  8.38055470
   2.63997547  0.00001422  1.11584590
  -0.00002541  1.52421935  3.55047947
   2.64002545  3.04839473  5.94592065
  -2.63997547  9.14521440  8.38055470
   5.27997557  0.00001422  1.11584590
   7.91997448  1.52421935  3.55047947
   5.28002580  3.04839473  5.94592065
   0.00002464  9.14521440  8.38055470
   3.95997540  2.28632132  1.11584590
   6.59997431  3.81052657  3.55047947
   6.60002598  0.76208763  5.94592065
   3.96002467  2.28629287  8.38055470
   6.59997527  2.28632132  1.11584590
   3.95997420  3.81052657  3.55047947
   9.24002584  0.76208763  5.94592065
   6.60002455  2.28629287  8.38055470
   7.91997543  0.00001422  1.11584590
   5.27997414  1.52421935  3.55047947
   7.92002566  3.04839473  5.94592065
   2.64002450  9.14521440  8.38055470
   7.91997567  4.57262842  1.11584590
  -0.00002559  6.09683366  3.55047947
  -2.63997474  7.62100892  5.94592065
  -2.63997547  4.57259997  8.38055470
   6.59997574  6.85893527  1.11584590
  -1.32002553  8.38314100  3.55047947
  -1.31997445  5.33470159  5.94592065
  -3.95997540  6.85890683  8.38055470
  -1.32002457  6.85893527  1.11584590
  -3.96002563  8.38314100  3.55047947
   1.32002577  5.33470159  5.94592065
  -1.31997530  6.85890683  8.38055470
  -0.00002464  4.57262842  1.11584590
  -2.64002570  6.09683366  3.55047947
   0.00002559  7.62100892  5.94592065
   0.00002463  4.57259997  8.38055470
   2.63997546  4.57262842  1.11584590
   5.27997462  6.09683366  3.55047947
   2.64002594  7.62100892  5.94592065
   2.64002474  4.57259997  8.38055470
   1.31997553  6.85893527  1.11584590
   3.95997444  8.38314100  3.55047947
   3.96002611  5.33470159  5.94592065
   1.32002481  6.85890683  8.38055470
   3.95997540  6.85893527  1.11584590
   1.31997410  8.38314100  3.55047947
   6.60002598  5.33470159  5.94592065
   3.96002468  6.85890683  8.38055470
   5.27997509  4.57262842  1.11584590
   2.63997404  6.09683366  3.55047947
   5.28002580  7.62100892  5.94592065
   5.28002437  4.57259997  8.38055470
 


--------------------------------------------------------------------------------------------------------


 k-point  1 :   0.0000 0.0000 0.0000  plane waves:   56579
 k-point  2 :   0.5000-0.0000 0.0000  plane waves:   56606
 k-point  3 :   0.5000 0.5000 0.0000  plane waves:   56606

 maximum and minimum number of plane-waves per node :     14185    14108

 maximum number of plane-waves:     56606
 maximum index in each direction: 
   IXMAX=   20   IYMAX=   20   IZMAX=   38
   IXMIN=  -20   IYMIN=  -20   IZMIN=  -38


 real space projection operators:
  total allocation   :      71046.00 KBytes
  max/ min on nodes  :      17761.50      17761.50


 parallel 3D FFT for wavefunctions:
    minimum data exchange during FFTs selected (reduces bandwidth)
 parallel 3D FFT for charge:
    minimum data exchange during FFTs selected (reduces bandwidth)


 total amount of memory used by VASP MPI-rank0   178693. kBytes
=======================================================================

   base      :      30000. kBytes
   nonlr-proj:      30718. kBytes
   fftplans  :      17093. kBytes
   grid      :      42083. kBytes
   one-center:        497. kBytes
   wavefun   :      58302. kBytes
 
     INWAV:  cpu time    0.0000: real time    0.0000
 Broyden mixing: mesh for mixing (old mesh)
   NGX = 41   NGY = 41   NGZ = 77
  (NGX  =168   NGY  =168   NGZ  =320)
  gives a total of 129437 points

 initial charge density was supplied:
 charge density of overlapping atoms calculated
 number of electron     640.0000000 magnetization      64.0000000
 keeping initial charge density in first step


--------------------------------------------------------------------------------------------------------


 Maximum index for non-local projection operator         2015
 Maximum index for augmentation-charges         2177 (set IRDMAX)


--------------------------------------------------------------------------------------------------------


 First call to EWALD:  gamma=   0.142
 Maximum number of real-space cells 4x 4x 2
 Maximum number of reciprocal cells 2x 2x 4

    FEWALD:  cpu time    0.0033: real time    0.0033


--------------------------------------- Iteration      1(   1)  ---------------------------------------


    POTLOK:  cpu time    0.3869: real time    0.4053
    SETDIJ:  cpu time    0.0334: real time    0.0339
     EDDAV:  cpu time   31.8880: real time   31.9983
       DOS:  cpu time    0.0026: real time    0.0028
    --------------------------------------------
      LOOP:  cpu time   32.3111: real time   32.4402

 eigenvalue-minimisations  :  5040
 total energy-change (2. order) : 0.4489308E+04  (-0.3116819E+05)
 number of electron     640.0000000 magnetization      64.0000000
 augmentation part      640.0000000 magnetization      64.0000000

 Free energy of the ion-electron system (eV)
  ---------------------------------------------------
  alpha Z        PSCENC =      2015.86452450
  Ewald energy   TEWEN  =    126106.27667883
  -Hartree energ DENC   =   -177165.72901554
  -exchange      EXHF   =         0.00000000
  -V(xc)+E(xc)   XCENC  =       242.13761421
  PAW double counting   =     44546.96166755   -42737.10153268
  entropy T*S    EENTRO =        -0.00136544
  eigenvalues    EBANDS =      4817.50421198
  atomic energy  EATOM  =     46663.39518770
  Solvation  Ediel_sol  =         0.00000000
  ---------------------------------------------------
  free energy    TOTEN  =      4489.30797110 eV

  energy without entropy =     4489.30933655  energy(sigma->0) =     4489.30842625


--------------------------------------------------------------------------------------------------------




--------------------------------------- Iteration      1(   2)  ---------------------------------------


     EDDAV:  cpu time   34.6801: real time   34.7730
       DOS:  cpu time    0.0013: real time    0.0013
    --------------------------------------------
      LOOP:  cpu time   34.6813: real time   34.7743

 eigenvalue-minimisations  :  5630
 total energy-change (2. order) :-0.4624665E+04  (-0.4238341E+04)
 number of electron     640.0000000 magnetization      64.0000000
 augmentation part      640.0000000 magnetization      64.0000000

 Free energy of the ion-electron system (eV)
  ---------------------------------------------------
  alpha Z        PSCENC =      2015.86452450
  Ewald energy   TEWEN  =    126106.27667883
  -Hartree energ DENC   =   -177165.72901554
  -exchange      EXHF   =         0.00000000
  -V(xc)+E(xc)   XCENC  =       242.13761421
  PAW double counting   =     44546.96166755   -42737.10153268
  entropy T*S    EENTRO =        -0.01033512
  eigenvalues    EBANDS =       192.84794460
  atomic energy  EATOM  =     46663.39518770
  Solvation  Ediel_sol  =         0.00000000
  ---------------------------------------------------
  free energy    TOTEN  =      -135.35726596 eV

  energy without entropy =     -135.34693083  energy(sigma->0) =     -135.35382092


--------------------------------------------------------------------------------------------------------




--------------------------------------- Iteration      1(   3)  ---------------------------------------


     EDDAV:  cpu time   35.0928: real time   35.1758
       DOS:  cpu time    0.0013: real time    0.0013
    --------------------------------------------
      LOOP:  cpu time   35.0941: real time   35.1772

 eigenvalue-minimisations  :  5720
 total energy-change (2. order) :-0.2447590E+03  (-0.2264702E+03)
 number of electron     640.0000000 magnetization      64.0000000
 augmentation part      640.0000000 magnetization      64.0000000

 Free energy of the ion-electron system (eV)
  ---------------------------------------------------
  alpha Z        PSCENC =      2015.86452450
  Ewald energy   TEWEN  =    126106.27667883
  -Hartree energ DENC   =   -177165.72901554
  -exchange      EXHF   =         0.00000000
  -V(xc)+E(xc)   XCENC  =       242.13761421
  PAW double counting   =     44546.96166755   -42737.10153268
  entropy T*S    EENTRO =         0.00788898
  eigenvalues    EBANDS =       -51.92924945
  atomic energy  EATOM  =     46663.39518770
  Solvation  Ediel_sol  =         0.00000000
  ---------------------------------------------------
  free energy    TOTEN  =      -380.11623591 eV

  energy without entropy =     -380.12412488  energy(sigma->0) =     -380.11886556


--------------------------------------------------------------------------------------------------------




--------------------------------------- Iteration      1(   4)  ---------------------------------------


     EDDAV:  cpu time   36.1169: real time   36.2024
       DOS:  cpu time    0.0013: real time    0.0013
    --------------------------------------------
      LOOP:  cpu time   36.1182: real time   36.2037

 eigenvalue-minimisations  :  5940
 total energy-change (2. order) :-0.6343544E+01  (-0.6284333E+01)
 number of electron     640.0000000 magnetization      64.0000000
 augmentation part      640.0000000 magnetization      64.0000000

 Free energy of the ion-electron system (eV)
  ---------------------------------------------------
  alpha Z        PSCENC =      2015.86452450
  Ewald energy   TEWEN  =    126106.27667883
  -Hartree energ DENC   =   -177165.72901554
  -exchange      EXHF   =         0.00000000
  -V(xc)+E(xc)   XCENC  =       242.13761421
  PAW double counting   =     44546.96166755   -42737.10153268
  entropy T*S    EENTRO =        -0.00035432
  eigenvalues    EBANDS =       -58.26455034
  atomic energy  EATOM  =     46663.39518770
  Solvation  Ediel_sol  =         0.00000000
  ---------------------------------------------------
  free energy    TOTEN  =      -386.45978009 eV

  energy without entropy =     -386.45942577  energy(sigma->0) =     -386.45966198


--------------------------------------------------------------------------------------------------------




--------------------------------------- Iteration      1(   5)  ---------------------------------------


     EDDAV:  cpu time   36.4267: real time   36.5255
       DOS:  cpu time    0.0013: real time    0.0013
    CHARGE:  cpu time    2.8658: real time    2.8738
    MIXING:  cpu time    0.0108: real time    0.0114
    --------------------------------------------
      LOOP:  cpu time   39.3047: real time   39.4120

 eigenvalue-minimisations  :  5970
 total energy-change (2. order) :-0.2101235E+00  (-0.2095428E+00)
 number of electron     640.0000123 magnetization      57.8388088
 augmentation part      185.7129869 magnetization      46.5013845

 Broyden mixing:
  rms(total) = 0.10526E+02    rms(broyden)= 0.10526E+02
  rms(prec ) = 0.10630E+02
  weight for this iteration     100.00

 Free energy of the ion-electron system (eV)
  ---------------------------------------------------
  alpha Z        PSCENC =      2015.86452450
  Ewald energy   TEWEN  =    126106.27667883
  -Hartree energ DENC   =   -177165.72901554
  -exchange      EXHF   =         0.00000000
  -V(xc)+E(xc)   XCENC  =       242.13761421
  PAW double counting   =     44546.96166755   -42737.10153268
  entropy T*S    EENTRO =        -0.00104281
  eigenvalues    EBANDS =       -58.47398533
  atomic energy  EATOM  =     46663.39518770
  Solvation  Ediel_sol  =         0.00000000
  ---------------------------------------------------
  free energy    TOTEN  =      -386.66990356 eV

  energy without entropy =     -386.66886076  energy(sigma->0) =     -386.66955596


--------------------------------------------------------------------------------------------------------




--------------------------------------- Iteration      1(   6)  ---------------------------------------


    POTLOK:  cpu time    0.3749: real time    0.3759
    SETDIJ:  cpu time    0.0323: real time    0.0324
    EDDIAG:  cpu time    5.6380: real time    5.6537
  RMM-DIIS:  cpu time   20.5333: real time   20.5896
    ORTHCH:  cpu time    0.5748: real time    0.5765
       DOS:  cpu time    0.0012: real time    0.0012
    CHARGE:  cpu time    2.8597: real time    2.8675
    MIXING:  cpu time    0.0114: real time    0.0117
    --------------------------------------------
      LOOP:  cpu time   30.0255: real time   30.1084

 eigenvalue-minimisations  :  5063
 total energy-change (2. order) : 0.2684348E+02  (-0.5878518E+01)
 number of electron     640.0000130 magnetization      50.1348090
 augmentation part      195.1081601 magnetization      37.3238172

 Broyden mixing:
  rms(total) = 0.67411E+01    rms(broyden)= 0.67411E+01
  rms(prec ) = 0.70026E+01
  weight for this iteration     100.00

 eigenvalues of (default mixing * dielectric matrix)
  average eigenvalue GAMMA=   1.2907
  1.2907

 Free energy of the ion-electron system (eV)
  ---------------------------------------------------
  alpha Z        PSCENC =      2015.86452450
  Ewald energy   TEWEN  =    126106.27667883
  -Hartree energ DENC   =   -176481.77342615
  -exchange      EXHF   =         0.00000000
  -V(xc)+E(xc)   XCENC  =       230.96992753
  PAW double counting   =     50864.02073795   -49161.47208974
  entropy T*S    EENTRO =        -0.02192635
  eigenvalues    EBANDS =      -597.08603476
  atomic energy  EATOM  =     46663.39518770
  Solvation  Ediel_sol  =         0.00000000
  ---------------------------------------------------
  free energy    TOTEN  =      -359.82642050 eV

  energy without entropy =     -359.80449415  energy(sigma->0) =     -359.81911172


--------------------------------------------------------------------------------------------------------




--------------------------------------- Iteration      1(   7)  ---------------------------------------


    POTLOK:  cpu time    0.3759: real time    0.3768
    SETDIJ:  cpu time    0.0325: real time    0.0326
    EDDIAG:  cpu time    5.6265: real time    5.6421
  RMM-DIIS:  cpu time   20.3220: real time   20.3780
    ORTHCH:  cpu time    0.5437: real time    0.5453
       DOS:  cpu time    0.0013: real time    0.0013
    CHARGE:  cpu time    2.8969: real time    2.9048
    MIXING:  cpu time    0.0104: real time    0.0104
    --------------------------------------------
      LOOP:  cpu time   29.8093: real time   29.8913

 eigenvalue-minimisations  :  5052
 total energy-change (2. order) :-0.1025691E+03  (-0.1146559E+02)
 number of electron     640.0000136 magnetization      44.5176285
 augmentation part      192.7996633 magnetization      32.4898540

 Broyden mixing:
  rms(total) = 0.91617E+01    rms(broyden)= 0.91617E+01
  rms(prec ) = 0.11287E+02
  weight for this iteration     100.00

 eigenvalues of (default mixing * dielectric matrix)
  average eigenvalue GAMMA=   1.0853
  1.8242  0.3464

 Free energy of the ion-electron system (eV)
  ---------------------------------------------------
  alpha Z        PSCENC =      2015.86452450
  Ewald energy   TEWEN  =    126106.27667883
  -Hartree energ DENC   =   -177030.91612768
  -exchange      EXHF   =         0.00000000
  -V(xc)+E(xc)   XCENC  =       224.88280872
  PAW double counting   =     56591.19988974   -54952.17911586
  entropy T*S    EENTRO =        -0.01012368
  eigenvalues    EBANDS =       -80.90928583
  atomic energy  EATOM  =     46663.39518770
  Solvation  Ediel_sol  =         0.00000000
  ---------------------------------------------------
  free energy    TOTEN  =      -462.39556357 eV

  energy without entropy =     -462.38543989  energy(sigma->0) =     -462.39218901


--------------------------------------------------------------------------------------------------------




--------------------------------------- Iteration      1(   8)  ---------------------------------------


    POTLOK:  cpu time    0.3762: real time    0.3795
    SETDIJ:  cpu time    0.0321: real time    0.0322
    EDDIAG:  cpu time    5.6547: real time    5.6704
  RMM-DIIS:  cpu time   20.4258: real time   20.4819
    ORTHCH:  cpu time    0.5660: real time    0.5677
       DOS:  cpu time    0.0014: real time    0.0014
    CHARGE:  cpu time    2.8325: real time    2.8402
    MIXING:  cpu time    0.0108: real time    0.0109
    --------------------------------------------
      LOOP:  cpu time   29.8995: real time   29.9841

 eigenvalue-minimisations  :  5071
 total energy-change (2. order) : 0.1145469E+03  (-0.4991981E+01)
 number of electron     640.0000132 magnetization      41.0384519
 augmentation part      198.5432754 magnetization      29.5517388

 Broyden mixing:
  rms(total) = 0.21230E+01    rms(broyden)= 0.21230E+01
  rms(prec ) = 0.23480E+01
  weight for this iteration     100.00

 eigenvalues of (default mixing * dielectric matrix)
  average eigenvalue GAMMA=   1.0355
  2.1412  0.6297  0.3356

 Free energy of the ion-electron system (eV)
  ---------------------------------------------------
  alpha Z        PSCENC =      2015.86452450
  Ewald energy   TEWEN  =    126106.27667883
  -Hartree energ DENC   =   -176469.39937235
  -exchange      EXHF   =         0.00000000
  -V(xc)+E(xc)   XCENC  =       227.35435692
  PAW double counting   =     60043.31271997   -58446.38008487
  entropy T*S    EENTRO =        -0.06998318
  eigenvalues    EBANDS =      -488.20271847
  atomic energy  EATOM  =     46663.39518770
  Solvation  Ediel_sol  =         0.00000000
  ---------------------------------------------------
  free energy    TOTEN  =      -347.84869095 eV

  energy without entropy =     -347.77870777  energy(sigma->0) =     -347.82536323


--------------------------------------------------------------------------------------------------------




--------------------------------------- Iteration      1(   9)  ---------------------------------------


    POTLOK:  cpu time    0.3762: real time    0.3773
    SETDIJ:  cpu time    0.0328: real time    0.0329
    EDDIAG:  cpu time    5.6255: real time    5.6409
  RMM-DIIS:  cpu time   20.5035: real time   20.5596
    ORTHCH:  cpu time    0.5636: real time    0.5653
       DOS:  cpu time    0.0012: real time    0.0012
    CHARGE:  cpu time    2.8921: real time    2.9000
    MIXING:  cpu time    0.0120: real time    0.0121
    --------------------------------------------
      LOOP:  cpu time   30.0070: real time   30.0892

 eigenvalue-minimisations  :  5096
 total energy-change (2. order) :-0.3343327E+01  (-0.4820031E+00)
 number of electron     640.0000131 magnetization      36.7805995
 augmentation part      197.7370549 magnetization      26.6781649

 Broyden mixing:
  rms(total) = 0.12213E+01    rms(broyden)= 0.12213E+01
  rms(prec ) = 0.12707E+01
  weight for this iteration     100.00

 eigenvalues of (default mixing * dielectric matrix)
  average eigenvalue GAMMA=   1.0342
  2.2163  1.0168  0.3372  0.5665

 Free energy of the ion-electron system (eV)
  ---------------------------------------------------
  alpha Z        PSCENC =      2015.86452450
  Ewald energy   TEWEN  =    126106.27667883
  -Hartree energ DENC   =   -176499.51262657
  -exchange      EXHF   =         0.00000000
  -V(xc)+E(xc)   XCENC  =       226.16991467
  PAW double counting   =     60361.19587541   -58762.82258781
  entropy T*S    EENTRO =         0.03092306
  eigenvalues    EBANDS =      -461.78990726
  atomic energy  EATOM  =     46663.39518770
  Solvation  Ediel_sol  =         0.00000000
  ---------------------------------------------------
  free energy    TOTEN  =      -351.19201748 eV

  energy without entropy =     -351.22294054  energy(sigma->0) =     -351.20232517


--------------------------------------------------------------------------------------------------------




--------------------------------------- Iteration      1(  10)  ---------------------------------------


    POTLOK:  cpu time    0.3761: real time    0.3772
    SETDIJ:  cpu time    0.0328: real time    0.0328
    EDDIAG:  cpu time    5.6113: real time    5.6268
  RMM-DIIS:  cpu time   20.7976: real time   20.8545
    ORTHCH:  cpu time    0.5280: real time    0.5296
       DOS:  cpu time    0.0014: real time    0.0014
    CHARGE:  cpu time    2.8720: real time    2.8798
    MIXING:  cpu time    0.0115: real time    0.0115
    --------------------------------------------
      LOOP:  cpu time   30.2307: real time   30.3137

 eigenvalue-minimisations  :  5164
 total energy-change (2. order) :-0.1363032E+01  (-0.6202100E-01)
 number of electron     640.0000130 magnetization      30.5165184
 augmentation part      197.3991979 magnetization      20.4894508

 Broyden mixing:
  rms(total) = 0.95051E+00    rms(broyden)= 0.95051E+00
  rms(prec ) = 0.10268E+01
  weight for this iteration     100.00

 eigenvalues of (default mixing * dielectric matrix)
  average eigenvalue GAMMA=   1.0894
  2.4401  1.1240  0.9749  0.3282  0.5796

 Free energy of the ion-electron system (eV)
  ---------------------------------------------------
  alpha Z        PSCENC =      2015.86452450
  Ewald energy   TEWEN  =    126106.27667883
  -Hartree energ DENC   =   -176514.72356348
  -exchange      EXHF   =         0.00000000
  -V(xc)+E(xc)   XCENC  =       225.82489186
  PAW double counting   =     60687.60210649   -59091.55881163
  entropy T*S    EENTRO =         0.04651455
  eigenvalues    EBANDS =      -445.28257872
  atomic energy  EATOM  =     46663.39518770
  Solvation  Ediel_sol  =         0.00000000
  ---------------------------------------------------
  free energy    TOTEN  =      -352.55504990 eV

  energy without entropy =     -352.60156445  energy(sigma->0) =     -352.57055475


--------------------------------------------------------------------------------------------------------




--------------------------------------- Iteration      1(  11)  ---------------------------------------


    POTLOK:  cpu time    0.3773: real time    0.3784
    SETDIJ:  cpu time    0.0326: real time    0.0326
    EDDIAG:  cpu time    5.6269: real time    5.6422
  RMM-DIIS:  cpu time   20.4735: real time   20.5367
    ORTHCH:  cpu time    0.5462: real time    0.5475
       DOS:  cpu time    0.0012: real time    0.0012
    CHARGE:  cpu time    2.8585: real time    2.8653
    MIXING:  cpu time    0.0107: real time    0.0108
    --------------------------------------------
      LOOP:  cpu time   29.9269: real time   30.0147

 eigenvalue-minimisations  :  5069
 total energy-change (2. order) :-0.4014150E+01  (-0.1072175E+00)
 number of electron     640.0000131 magnetization      26.8876946
 augmentation part      197.1930375 magnetization      15.9671571

 Broyden mixing:
  rms(total) = 0.77436E+00    rms(broyden)= 0.77436E+00
  rms(prec ) = 0.86276E+00
  weight for this iteration     100.00

 eigenvalues of (default mixing * dielectric matrix)
  average eigenvalue GAMMA=   1.1068
  2.2096  1.9975  0.3283  0.8003  0.6526  0.6526

 Free energy of the ion-electron system (eV)
  ---------------------------------------------------
  alpha Z        PSCENC =      2015.86452450
  Ewald energy   TEWEN  =    126106.27667883
  -Hartree energ DENC   =   -176559.17910861
  -exchange      EXHF   =         0.00000000
  -V(xc)+E(xc)   XCENC  =       223.18299056
  PAW double counting   =     61039.60197279   -59447.45131382
  entropy T*S    EENTRO =        -0.03414215
  eigenvalues    EBANDS =      -398.22598999
  atomic energy  EATOM  =     46663.39518770
  Solvation  Ediel_sol  =         0.00000000
  ---------------------------------------------------
  free energy    TOTEN  =      -356.56920020 eV

  energy without entropy =     -356.53505805  energy(sigma->0) =     -356.55781949


--------------------------------------------------------------------------------------------------------




--------------------------------------- Iteration      1(  12)  ---------------------------------------


    POTLOK:  cpu time    0.3791: real time    0.3803
    SETDIJ:  cpu time    0.0322: real time    0.0323
    EDDIAG:  cpu time    5.6093: real time    5.6225
  RMM-DIIS:  cpu time   20.5083: real time   20.5568
    ORTHCH:  cpu time    0.5606: real time    0.5620
       DOS:  cpu time    0.0013: real time    0.0013
    CHARGE:  cpu time    2.8367: real time    2.8434
    MIXING:  cpu time    0.0120: real time    0.0120
    --------------------------------------------
      LOOP:  cpu time   29.9395: real time   30.0106

 eigenvalue-minimisations  :  5059
 total energy-change (2. order) :-0.4905089E+01  (-0.2766583E+00)
 number of electron     640.0000130 magnetization      21.8248799
 augmentation part      196.9352697 magnetization      13.0257447

 Broyden mixing:
  rms(total) = 0.51323E+00    rms(broyden)= 0.51323E+00
  rms(prec ) = 0.53750E+00
  weight for this iteration     100.00

 eigenvalues of (default mixing * dielectric matrix)
  average eigenvalue GAMMA=   1.2271
  2.6084  2.6084  0.9488  0.9488  0.3276  0.5737  0.5737

 Free energy of the ion-electron system (eV)
  ---------------------------------------------------
  alpha Z        PSCENC =      2015.86452450
  Ewald energy   TEWEN  =    126106.27667883
  -Hartree energ DENC   =   -176561.13088968
  -exchange      EXHF   =         0.00000000
  -V(xc)+E(xc)   XCENC  =       220.52261938
  PAW double counting   =     60635.11865961   -59038.38841046
  entropy T*S    EENTRO =         0.02379388
  eigenvalues    EBANDS =      -403.15645253
  atomic energy  EATOM  =     46663.39518770
  Solvation  Ediel_sol  =         0.00000000
  ---------------------------------------------------
  free energy    TOTEN  =      -361.47428879 eV

  energy without entropy =     -361.49808266  energy(sigma->0) =     -361.48222008


--------------------------------------------------------------------------------------------------------




--------------------------------------- Iteration      1(  13)  ---------------------------------------


    POTLOK:  cpu time    0.3774: real time    0.3783
    SETDIJ:  cpu time    0.0327: real time    0.0327
    EDDIAG:  cpu time    5.6450: real time    5.6584
  RMM-DIIS:  cpu time   20.5417: real time   20.5903
    ORTHCH:  cpu time    0.5682: real time    0.5695
       DOS:  cpu time    0.0017: real time    0.0017
    CHARGE:  cpu time    2.8310: real time    2.8377
    MIXING:  cpu time    0.0123: real time    0.0123
    --------------------------------------------
      LOOP:  cpu time   30.0100: real time   30.0811

 eigenvalue-minimisations  :  5051
 total energy-change (2. order) :-0.3066160E+01  (-0.1758640E+00)
 number of electron     640.0000130 magnetization      17.6870732
 augmentation part      196.9735697 magnetization       9.1145811

 Broyden mixing:
  rms(total) = 0.27807E+00    rms(broyden)= 0.27807E+00
  rms(prec ) = 0.29578E+00
  weight for this iteration     100.00

 eigenvalues of (default mixing * dielectric matrix)
  average eigenvalue GAMMA=   1.4539
  4.8310  2.4021  1.2693  0.9212  0.3278  0.6677  0.6061  0.6061

 Free energy of the ion-electron system (eV)
  ---------------------------------------------------
  alpha Z        PSCENC =      2015.86452450
  Ewald energy   TEWEN  =    126106.27667883
  -Hartree energ DENC   =   -176555.11629553
  -exchange      EXHF   =         0.00000000
  -V(xc)+E(xc)   XCENC  =       218.08498516
  PAW double counting   =     60535.51718143   -58938.61154389
  entropy T*S    EENTRO =         0.03085493
  eigenvalues    EBANDS =      -409.98202214
  atomic energy  EATOM  =     46663.39518770
  Solvation  Ediel_sol  =         0.00000000
  ---------------------------------------------------
  free energy    TOTEN  =      -364.54044899 eV

  energy without entropy =     -364.57130393  energy(sigma->0) =     -364.55073397


--------------------------------------------------------------------------------------------------------




--------------------------------------- Iteration      1(  14)  ---------------------------------------


    POTLOK:  cpu time    0.3778: real time    0.3787
    SETDIJ:  cpu time    0.0324: real time    0.0324
    EDDIAG:  cpu time    5.6251: real time    5.6384
  RMM-DIIS:  cpu time   20.5152: real time   20.5731
    ORTHCH:  cpu time    0.5274: real time    0.5287
       DOS:  cpu time    0.0013: real time    0.0013
    CHARGE:  cpu time    2.8241: real time    2.8308
    MIXING:  cpu time    0.0120: real time    0.0121
    --------------------------------------------
      LOOP:  cpu time   29.9153: real time   29.9955

 eigenvalue-minimisations  :  5055
 total energy-change (2. order) :-0.1370622E+01  (-0.9434791E-01)
 number of electron     640.0000131 magnetization      16.3952096
 augmentation part      197.0694428 magnetization       8.2506617

 Broyden mixing:
  rms(total) = 0.14887E+00    rms(broyden)= 0.14887E+00
  rms(prec ) = 0.15625E+00
  weight for this iteration     100.00

 eigenvalues of (default mixing * dielectric matrix)
  average eigenvalue GAMMA=   1.5320
  6.0005  2.2860  1.2464  1.2464  0.3278  0.7913  0.6121  0.6121  0.6654

 Free energy of the ion-electron system (eV)
  ---------------------------------------------------
  alpha Z        PSCENC =      2015.86452450
  Ewald energy   TEWEN  =    126106.27667883
  -Hartree energ DENC   =   -176534.68831400
  -exchange      EXHF   =         0.00000000
  -V(xc)+E(xc)   XCENC  =       216.79583222
  PAW double counting   =     60525.83237082   -58929.50673494
  entropy T*S    EENTRO =         0.01775574
  eigenvalues    EBANDS =      -429.89837195
  atomic energy  EATOM  =     46663.39518770
  Solvation  Ediel_sol  =         0.00000000
  ---------------------------------------------------
  free energy    TOTEN  =      -365.91107107 eV

  energy without entropy =     -365.92882682  energy(sigma->0) =     -365.91698966


--------------------------------------------------------------------------------------------------------




--------------------------------------- Iteration      1(  15)  ---------------------------------------


    POTLOK:  cpu time    0.3786: real time    0.3797
    SETDIJ:  cpu time    0.0327: real time    0.0328
    EDDIAG:  cpu time    5.6514: real time    5.6648
  RMM-DIIS:  cpu time   20.5788: real time   20.6274
    ORTHCH:  cpu time    0.4981: real time    0.4993
       DOS:  cpu time    0.0013: real time    0.0013
    CHARGE:  cpu time    2.8392: real time    2.8459
    MIXING:  cpu time    0.0119: real time    0.0119
    --------------------------------------------
      LOOP:  cpu time   29.9918: real time   30.0630

 eigenvalue-minimisations  :  5071
 total energy-change (2. order) :-0.5655085E-01  (-0.1250956E-01)
 number of electron     640.0000131 magnetization      15.5823491
 augmentation part      197.0738409 magnetization       7.5050420

 Broyden mixing:
  rms(total) = 0.83063E-01    rms(broyden)= 0.83063E-01
  rms(prec ) = 0.90357E-01
  weight for this iteration     100.00

 eigenvalues of (default mixing * dielectric matrix)
  average eigenvalue GAMMA=   1.6026
  6.6863  2.1960  1.7696  1.5186  0.3278  0.8424  0.8424  0.6054  0.6054  0.6320

 Free energy of the ion-electron system (eV)
  ---------------------------------------------------
  alpha Z        PSCENC =      2015.86452450
  Ewald energy   TEWEN  =    126106.27667883
  -Hartree energ DENC   =   -176518.86642261
  -exchange      EXHF   =         0.00000000
  -V(xc)+E(xc)   XCENC  =       216.58859675
  PAW double counting   =     60577.66453989   -58981.78935365
  entropy T*S    EENTRO =         0.00182165
  eigenvalues    EBANDS =      -445.10319498
  atomic energy  EATOM  =     46663.39518770
  Solvation  Ediel_sol  =         0.00000000
  ---------------------------------------------------
  free energy    TOTEN  =      -365.96762193 eV

  energy without entropy =     -365.96944358  energy(sigma->0) =     -365.96822915


--------------------------------------------------------------------------------------------------------




--------------------------------------- Iteration      1(  16)  ---------------------------------------


    POTLOK:  cpu time    0.3781: real time    0.3792
    SETDIJ:  cpu time    0.0333: real time    0.0334
    EDDIAG:  cpu time    5.6333: real time    5.6466
  RMM-DIIS:  cpu time   20.7580: real time   20.8204
    ORTHCH:  cpu time    0.5260: real time    0.5273
       DOS:  cpu time    0.0013: real time    0.0013
    CHARGE:  cpu time    2.8494: real time    2.8572
    MIXING:  cpu time    0.0126: real time    0.0126
    --------------------------------------------
      LOOP:  cpu time   30.1921: real time   30.2780

 eigenvalue-minimisations  :  5068
 total energy-change (2. order) : 0.4336074E-01  (-0.3102949E-02)
 number of electron     640.0000131 magnetization      15.0765734
 augmentation part      197.1302590 magnetization       7.3047883

 Broyden mixing:
  rms(total) = 0.69242E-01    rms(broyden)= 0.69242E-01
  rms(prec ) = 0.76218E-01
  weight for this iteration     100.00

 eigenvalues of (default mixing * dielectric matrix)
  average eigenvalue GAMMA=   1.5712
  6.9070  2.2399  2.2399  1.4294  0.3278  0.8590  0.8590  0.6174  0.6174  0.5932
  0.5932

 Free energy of the ion-electron system (eV)
  ---------------------------------------------------
  alpha Z        PSCENC =      2015.86452450
  Ewald energy   TEWEN  =    126106.27667883
  -Hartree energ DENC   =   -176494.13299772
  -exchange      EXHF   =         0.00000000
  -V(xc)+E(xc)   XCENC  =       216.42717361
  PAW double counting   =     60590.72189148   -58994.88262214
  entropy T*S    EENTRO =        -0.00009621
  eigenvalues    EBANDS =      -469.59400125
  atomic energy  EATOM  =     46663.39518770
  Solvation  Ediel_sol  =         0.00000000
  ---------------------------------------------------
  free energy    TOTEN  =      -365.92426119 eV

  energy without entropy =     -365.92416498  energy(sigma->0) =     -365.92422912


--------------------------------------------------------------------------------------------------------




--------------------------------------- Iteration      1(  17)  ---------------------------------------


    POTLOK:  cpu time    0.3769: real time    0.3782
    SETDIJ:  cpu time    0.0334: real time    0.0335
    EDDIAG:  cpu time    5.6056: real time    5.6206
  RMM-DIIS:  cpu time   20.4450: real time   20.5013
    ORTHCH:  cpu time    0.5301: real time    0.5313
       DOS:  cpu time    0.0013: real time    0.0013
    CHARGE:  cpu time    2.8214: real time    2.8292
    MIXING:  cpu time    0.0127: real time    0.0127
    --------------------------------------------
      LOOP:  cpu time   29.8263: real time   29.9080

 eigenvalue-minimisations  :  5057
 total energy-change (2. order) :-0.1053177E+00  (-0.9067516E-03)
 number of electron     640.0000131 magnetization      14.6996293
 augmentation part      197.1342800 magnetization       6.9548167

 Broyden mixing:
  rms(total) = 0.20030E-01    rms(broyden)= 0.20030E-01
  rms(prec ) = 0.22400E-01
  weight for this iteration     100.00

 eigenvalues of (default mixing * dielectric matrix)
  average eigenvalue GAMMA=   1.6101
  7.2413  2.4930  2.4930  1.4461  1.0344  1.0344  0.3278  0.6251  0.6251  0.7666
  0.6169  0.6169

 Free energy of the ion-electron system (eV)
  ---------------------------------------------------
  alpha Z        PSCENC =      2015.86452450
  Ewald energy   TEWEN  =    126106.27667883
  -Hartree energ DENC   =   -176482.67777465
  -exchange      EXHF   =         0.00000000
  -V(xc)+E(xc)   XCENC  =       216.20300480
  PAW double counting   =     60617.43373174   -59021.72815253
  entropy T*S    EENTRO =        -0.00817562
  eigenvalues    EBANDS =      -480.78860361
  atomic energy  EATOM  =     46663.39518770
  Solvation  Ediel_sol  =         0.00000000
  ---------------------------------------------------
  free energy    TOTEN  =      -366.02957885 eV

  energy without entropy =     -366.02140323  energy(sigma->0) =     -366.02685365


--------------------------------------------------------------------------------------------------------




--------------------------------------- Iteration      1(  18)  ---------------------------------------


    POTLOK:  cpu time    0.3763: real time    0.3778
    SETDIJ:  cpu time    0.0330: real time    0.0330
    EDDIAG:  cpu time    5.6104: real time    5.6256
  RMM-DIIS:  cpu time   20.5749: real time   20.6444
    ORTHCH:  cpu time    0.5123: real time    0.5135
       DOS:  cpu time    0.0014: real time    0.0014
    CHARGE:  cpu time    2.8239: real time    2.8306
    MIXING:  cpu time    0.0139: real time    0.0140
    --------------------------------------------
      LOOP:  cpu time   29.9460: real time   30.0402

 eigenvalue-minimisations  :  5061
 total energy-change (2. order) :-0.1312268E+00  (-0.6419027E-03)
 number of electron     640.0000131 magnetization      14.5071215
 augmentation part      197.1454621 magnetization       6.8352426

 Broyden mixing:
  rms(total) = 0.10578E-01    rms(broyden)= 0.10578E-01
  rms(prec ) = 0.12968E-01
  weight for this iteration     100.00

 eigenvalues of (default mixing * dielectric matrix)
  average eigenvalue GAMMA=   1.6502
  7.4523  2.5067  2.5067  2.1160  1.3399  0.3278  0.9969  0.9969  0.6239  0.6239
  0.7283  0.6429  0.5908

 Free energy of the ion-electron system (eV)
  ---------------------------------------------------
  alpha Z        PSCENC =      2015.86452450
  Ewald energy   TEWEN  =    126106.27667883
  -Hartree energ DENC   =   -176471.76827158
  -exchange      EXHF   =         0.00000000
  -V(xc)+E(xc)   XCENC  =       215.99220769
  PAW double counting   =     60617.36363173   -59021.56178586
  entropy T*S    EENTRO =        -0.01292229
  eigenvalues    EBANDS =      -491.71005642
  atomic energy  EATOM  =     46663.39518770
  Solvation  Ediel_sol  =         0.00000000
  ---------------------------------------------------
  free energy    TOTEN  =      -366.16080570 eV

  energy without entropy =     -366.14788341  energy(sigma->0) =     -366.15649827


--------------------------------------------------------------------------------------------------------




--------------------------------------- Iteration      1(  19)  ---------------------------------------


    POTLOK:  cpu time    0.3769: real time    0.3779
    SETDIJ:  cpu time    0.0333: real time    0.0334
    EDDIAG:  cpu time    5.6304: real time    5.6437
  RMM-DIIS:  cpu time   20.2171: real time   20.2649
    ORTHCH:  cpu time    0.5455: real time    0.5468
       DOS:  cpu time    0.0013: real time    0.0013
    CHARGE:  cpu time    2.8541: real time    2.8608
    MIXING:  cpu time    0.0128: real time    0.0128
    --------------------------------------------
      LOOP:  cpu time   29.6714: real time   29.7416

 eigenvalue-minimisations  :  4982
 total energy-change (2. order) :-0.1303348E+00  (-0.5878424E-03)
 number of electron     640.0000131 magnetization      14.4316544
 augmentation part      197.1496916 magnetization       6.7990373

 Broyden mixing:
  rms(total) = 0.90839E-02    rms(broyden)= 0.90839E-02
  rms(prec ) = 0.10982E-01
  weight for this iteration     100.00

 eigenvalues of (default mixing * dielectric matrix)
  average eigenvalue GAMMA=   1.6938
  7.6494  3.3939  2.4063  2.4063  1.4152  0.3278  1.0095  1.0095  0.8823  0.6229
  0.6229  0.7382  0.6451  0.5840

 Free energy of the ion-electron system (eV)
  ---------------------------------------------------
  alpha Z        PSCENC =      2015.86452450
  Ewald energy   TEWEN  =    126106.27667883
  -Hartree energ DENC   =   -176463.32794763
  -exchange      EXHF   =         0.00000000
  -V(xc)+E(xc)   XCENC  =       215.83128631
  PAW double counting   =     60614.52035772   -59018.62424268
  entropy T*S    EENTRO =        -0.01524889
  eigenvalues    EBANDS =      -500.21173633
  atomic energy  EATOM  =     46663.39518770
  Solvation  Ediel_sol  =         0.00000000
  ---------------------------------------------------
  free energy    TOTEN  =      -366.29114048 eV

  energy without entropy =     -366.27589159  energy(sigma->0) =     -366.28605751


--------------------------------------------------------------------------------------------------------




--------------------------------------- Iteration      1(  20)  ---------------------------------------


    POTLOK:  cpu time    0.3753: real time    0.3762
    SETDIJ:  cpu time    0.0336: real time    0.0337
    EDDIAG:  cpu time    5.6191: real time    5.6324
  RMM-DIIS:  cpu time   18.7865: real time   18.8309
    ORTHCH:  cpu time    0.5446: real time    0.5459
       DOS:  cpu time    0.0013: real time    0.0013
    CHARGE:  cpu time    2.8436: real time    2.8503
    MIXING:  cpu time    0.0143: real time    0.0143
    --------------------------------------------
      LOOP:  cpu time   28.2184: real time   28.2851

 eigenvalue-minimisations  :  4591
 total energy-change (2. order) :-0.6987362E-01  (-0.2580105E-03)
 number of electron     640.0000131 magnetization      14.4507512
 augmentation part      197.1502316 magnetization       6.8384415

 Broyden mixing:
  rms(total) = 0.53349E-02    rms(broyden)= 0.53349E-02
  rms(prec ) = 0.61242E-02
  weight for this iteration     100.00

 eigenvalues of (default mixing * dielectric matrix)
  average eigenvalue GAMMA=   1.7030
  7.6559  3.8126  2.3332  2.3332  1.7281  1.1945  1.1945  0.3278  0.9901  0.6237
  0.6237  0.7838  0.7143  0.6390  0.5910

 Free energy of the ion-electron system (eV)
  ---------------------------------------------------
  alpha Z        PSCENC =      2015.86452450
  Ewald energy   TEWEN  =    126106.27667883
  -Hartree energ DENC   =   -176457.47943991
  -exchange      EXHF   =         0.00000000
  -V(xc)+E(xc)   XCENC  =       215.74766252
  PAW double counting   =     60615.54290752   -59019.61316567
  entropy T*S    EENTRO =        -0.01539240
  eigenvalues    EBANDS =      -506.07997718
  atomic energy  EATOM  =     46663.39518770
  Solvation  Ediel_sol  =         0.00000000
  ---------------------------------------------------
  free energy    TOTEN  =      -366.36101410 eV

  energy without entropy =     -366.34562170  energy(sigma->0) =     -366.35588330


--------------------------------------------------------------------------------------------------------




--------------------------------------- Iteration      1(  21)  ---------------------------------------


    POTLOK:  cpu time    0.3785: real time    0.3796
    SETDIJ:  cpu time    0.0334: real time    0.0335
    EDDIAG:  cpu time    5.6690: real time    5.6824
  RMM-DIIS:  cpu time   17.5746: real time   17.6161
    ORTHCH:  cpu time    0.4843: real time    0.4854
       DOS:  cpu time    0.0013: real time    0.0013
    CHARGE:  cpu time    3.1092: real time    3.1171
    MIXING:  cpu time    0.0156: real time    0.0156
    --------------------------------------------
      LOOP:  cpu time   27.2660: real time   27.3311

 eigenvalue-minimisations  :  4275
 total energy-change (2. order) :-0.1882011E-01  (-0.9945724E-04)
 number of electron     640.0000131 magnetization      14.4315576
 augmentation part      197.1491449 magnetization       6.8229970

 Broyden mixing:
  rms(total) = 0.29732E-02    rms(broyden)= 0.29732E-02
  rms(prec ) = 0.37200E-02
  weight for this iteration     100.00

 eigenvalues of (default mixing * dielectric matrix)
  average eigenvalue GAMMA=   1.7195
  7.6919  4.5657  2.4365  2.4365  1.9007  1.2905  0.3278  1.1167  0.9303  0.9303
  0.6236  0.6236  0.7497  0.5900  0.6493  0.6493

 Free energy of the ion-electron system (eV)
  ---------------------------------------------------
  alpha Z        PSCENC =      2015.86452450
  Ewald energy   TEWEN  =    126106.27667883
  -Hartree energ DENC   =   -176453.86438984
  -exchange      EXHF   =         0.00000000
  -V(xc)+E(xc)   XCENC  =       215.72404217
  PAW double counting   =     60618.20731251   -59022.29694018
  entropy T*S    EENTRO =        -0.01519136
  eigenvalues    EBANDS =      -509.67105854
  atomic energy  EATOM  =     46663.39518770
  Solvation  Ediel_sol  =         0.00000000
  ---------------------------------------------------
  free energy    TOTEN  =      -366.37983421 eV

  energy without entropy =     -366.36464285  energy(sigma->0) =     -366.37477042


--------------------------------------------------------------------------------------------------------




--------------------------------------- Iteration      1(  22)  ---------------------------------------


    POTLOK:  cpu time    0.3777: real time    0.3788
    SETDIJ:  cpu time    0.0417: real time    0.0418
    EDDIAG:  cpu time    5.6404: real time    5.6538
  RMM-DIIS:  cpu time   16.1949: real time   16.2332
    ORTHCH:  cpu time    0.4861: real time    0.4872
       DOS:  cpu time    0.0013: real time    0.0013
    CHARGE:  cpu time    2.8405: real time    2.8472
    MIXING:  cpu time    0.0148: real time    0.0148
    --------------------------------------------
      LOOP:  cpu time   25.5974: real time   25.6580

 eigenvalue-minimisations  :  3870
 total energy-change (2. order) :-0.6823727E-02  (-0.4028977E-04)
 number of electron     640.0000131 magnetization      14.4080425
 augmentation part      197.1508025 magnetization       6.8010180

 Broyden mixing:
  rms(total) = 0.16426E-02    rms(broyden)= 0.16426E-02
  rms(prec ) = 0.22579E-02
  weight for this iteration     100.00

 eigenvalues of (default mixing * dielectric matrix)
  average eigenvalue GAMMA=   1.8336
  7.8547  5.9089  2.6949  2.3676  2.3676  1.6560  1.3162  0.3278  1.0016  1.0016
  0.6233  0.6233  0.7833  0.7833  0.5937  0.6334  0.6334

 Free energy of the ion-electron system (eV)
  ---------------------------------------------------
  alpha Z        PSCENC =      2015.86452450
  Ewald energy   TEWEN  =    126106.27667883
  -Hartree energ DENC   =   -176451.39412378
  -exchange      EXHF   =         0.00000000
  -V(xc)+E(xc)   XCENC  =       215.70977714
  PAW double counting   =     60618.45845318   -59022.55333786
  entropy T*S    EENTRO =        -0.01556856
  eigenvalues    EBANDS =      -512.12824908
  atomic energy  EATOM  =     46663.39518770
  Solvation  Ediel_sol  =         0.00000000
  ---------------------------------------------------
  free energy    TOTEN  =      -366.38665793 eV

  energy without entropy =     -366.37108937  energy(sigma->0) =     -366.38146841


--------------------------------------------------------------------------------------------------------




--------------------------------------- Iteration      1(  23)  ---------------------------------------


    POTLOK:  cpu time    0.3737: real time    0.3747
    SETDIJ:  cpu time    0.0333: real time    0.0333
    EDDIAG:  cpu time    5.7398: real time    5.7534
  RMM-DIIS:  cpu time   15.4242: real time   15.4672
    ORTHCH:  cpu time    0.4857: real time    0.4868
       DOS:  cpu time    0.0014: real time    0.0014
    CHARGE:  cpu time    2.8348: real time    2.8426
    MIXING:  cpu time    0.0149: real time    0.0149
    --------------------------------------------
      LOOP:  cpu time   24.9076: real time   24.9744

 eigenvalue-minimisations  :  3716
 total energy-change (2. order) :-0.1407061E-02  (-0.2731671E-04)
 number of electron     640.0000131 magnetization      14.4032240
 augmentation part      197.1516233 magnetization       6.8011429

 Broyden mixing:
  rms(total) = 0.25164E-02    rms(broyden)= 0.25164E-02
  rms(prec ) = 0.30583E-02
  weight for this iteration     100.00

 eigenvalues of (default mixing * dielectric matrix)
  average eigenvalue GAMMA=   1.8602
  8.0330  6.5769  2.9775  2.2346  2.1739  2.1739  1.2556  1.2556  0.3278  0.9436
  0.9436  0.6235  0.6235  0.7449  0.7449  0.5926  0.6291  0.6291

 Free energy of the ion-electron system (eV)
  ---------------------------------------------------
  alpha Z        PSCENC =      2015.86452450
  Ewald energy   TEWEN  =    126106.27667883
  -Hartree energ DENC   =   -176449.00505972
  -exchange      EXHF   =         0.00000000
  -V(xc)+E(xc)   XCENC  =       215.70283503
  PAW double counting   =     60618.69933213   -59022.80017923
  entropy T*S    EENTRO =        -0.01610808
  eigenvalues    EBANDS =      -514.50527615
  atomic energy  EATOM  =     46663.39518770
  Solvation  Ediel_sol  =         0.00000000
  ---------------------------------------------------
  free energy    TOTEN  =      -366.38806499 eV

  energy without entropy =     -366.37195692  energy(sigma->0) =     -366.38269563


--------------------------------------------------------------------------------------------------------




--------------------------------------- Iteration      1(  24)  ---------------------------------------


    POTLOK:  cpu time    0.3736: real time    0.3749
    SETDIJ:  cpu time    0.0334: real time    0.0335
    EDDIAG:  cpu time    5.6462: real time    5.6614
  RMM-DIIS:  cpu time   13.7936: real time   13.8315
    ORTHCH:  cpu time    0.4865: real time    0.4880
       DOS:  cpu time    0.0012: real time    0.0012
    CHARGE:  cpu time    2.8624: real time    2.8701
    MIXING:  cpu time    0.0158: real time    0.0158
    --------------------------------------------
      LOOP:  cpu time   23.2127: real time   23.2765

 eigenvalue-minimisations  :  3219
 total energy-change (2. order) :-0.8964201E-04  (-0.4065935E-05)
 number of electron     640.0000131 magnetization      14.4012976
 augmentation part      197.1510805 magnetization       6.8052361

 Broyden mixing:
  rms(total) = 0.16661E-02    rms(broyden)= 0.16661E-02
  rms(prec ) = 0.20261E-02
  weight for this iteration     100.00

 eigenvalues of (default mixing * dielectric matrix)
  average eigenvalue GAMMA=   1.8258
  8.2110  6.7151  2.8686  2.4636  2.4636  1.7267  1.2975  1.2975  0.3278  1.0009
  1.0009  0.6235  0.6235  0.7955  0.7955  0.6483  0.6483  0.5816  0.6011

 Free energy of the ion-electron system (eV)
  ---------------------------------------------------
  alpha Z        PSCENC =      2015.86452450
  Ewald energy   TEWEN  =    126106.27667883
  -Hartree energ DENC   =   -176448.22460391
  -exchange      EXHF   =         0.00000000
  -V(xc)+E(xc)   XCENC  =       215.70478472
  PAW double counting   =     60617.25459680   -59021.33562339
  entropy T*S    EENTRO =        -0.01581746
  eigenvalues    EBANDS =      -515.30788242
  atomic energy  EATOM  =     46663.39518770
  Solvation  Ediel_sol  =         0.00000000
  ---------------------------------------------------
  free energy    TOTEN  =      -366.38815464 eV

  energy without entropy =     -366.37233718  energy(sigma->0) =     -366.38288215


--------------------------------------------------------------------------------------------------------




--------------------------------------- Iteration      1(  25)  ---------------------------------------


    POTLOK:  cpu time    0.3748: real time    0.3759
    SETDIJ:  cpu time    0.0333: real time    0.0334
    EDDIAG:  cpu time    5.6144: real time    5.6299
  RMM-DIIS:  cpu time   11.9928: real time   12.0256
    ORTHCH:  cpu time    0.4837: real time    0.4848
       DOS:  cpu time    0.0013: real time    0.0013
    --------------------------------------------
      LOOP:  cpu time   18.5003: real time   18.5509

 eigenvalue-minimisations  :  2456
 total energy-change (2. order) :-0.1101580E-06  (-0.5154520E-06)
 number of electron     640.0000131 magnetization      14.4012976
 augmentation part      197.1510805 magnetization       6.8052361

 Free energy of the ion-electron system (eV)
  ---------------------------------------------------
  alpha Z        PSCENC =      2015.86452450
  Ewald energy   TEWEN  =    126106.27667883
  -Hartree energ DENC   =   -176447.91311273
  -exchange      EXHF   =         0.00000000
  -V(xc)+E(xc)   XCENC  =       215.70373859
  PAW double counting   =     60617.59355227   -59021.67716039
  entropy T*S    EENTRO =        -0.01586582
  eigenvalues    EBANDS =      -515.61569768
  atomic energy  EATOM  =     46663.39518770
  Solvation  Ediel_sol  =         0.00000000
  ---------------------------------------------------
  free energy    TOTEN  =      -366.38815475 eV

  energy without entropy =     -366.37228893  energy(sigma->0) =     -366.38286614


--------------------------------------------------------------------------------------------------------




 average (electrostatic) potential at core
  the test charge radii are     1.2059
  (the norm of the test charge is              1.0000)
       1 -71.2152       2 -71.4936       3 -71.4935       4 -71.2152       5 -71.2152
       6 -71.4936       7 -71.4935       8 -71.2152       9 -71.2153      10 -71.4936
      11 -71.4935      12 -71.2152      13 -71.2152      14 -71.4936      15 -71.4936
      16 -71.2152      17 -71.2153      18 -71.4936      19 -71.4936      20 -71.2152
      21 -71.2153      22 -71.4936      23 -71.4935      24 -71.2152      25 -71.2153
      26 -71.4936      27 -71.4935      28 -71.2152      29 -71.2152      30 -71.4936
      31 -71.4935      32 -71.2152      33 -71.2153      34 -71.4936      35 -71.4935
      36 -71.2152      37 -71.2152      38 -71.4936      39 -71.4935      40 -71.2152
      41 -71.2153      42 -71.4936      43 -71.4935      44 -71.2152      45 -71.2153
      46 -71.4936      47 -71.4935      48 -71.2152      49 -71.2153      50 -71.4936
      51 -71.4935      52 -71.2152      53 -71.2153      54 -71.4936      55 -71.4935
      56 -71.2152      57 -71.2152      58 -71.4936      59 -71.4935      60 -71.2152
      61 -71.2153      62 -71.4936      63 -71.4935      64 -71.2152
 
 
 
 E-fermi :   2.7112     XC(G=0):  -7.4415     alpha+bet : -8.3023


 spin component 1

 k-point     1 :       0.0000    0.0000    0.0000
  band No.  band energies     occupation 
      1      -7.3918      1.00000
      2      -6.3079      1.00000
      3      -5.4325      1.00000
      4      -5.3214      1.00000
      5      -5.3214      1.00000
      6      -5.3214      1.00000
      7      -5.3214      1.00000
      8      -5.3214      1.00000
      9      -5.3214      1.00000
     10      -5.2739      1.00000
     11      -4.6852      1.00000
     12      -4.6852      1.00000
     13      -4.6852      1.00000
     14      -4.6802      1.00000
     15      -4.6802      1.00000
     16      -4.6802      1.00000
     17      -4.4692      1.00000
     18      -4.4692      1.00000
     19      -4.4692      1.00000
     20      -4.4692      1.00000
     21      -4.4692      1.00000
     22      -4.4692      1.00000
     23      -4.1953      1.00000
     24      -4.1953      1.00000
     25      -4.1953      1.00000
     26      -4.1439      1.00000
     27      -4.1439      1.00000
     28      -4.1439      1.00000
     29      -3.8493      1.00000
     30      -3.8493      1.00000
     31      -3.8493      1.00000
     32      -3.8493      1.00000
     33      -3.8493      1.00000
     34      -3.8493      1.00000
     35      -3.8396      1.00000
     36      -3.8396      1.00000
     37      -3.8396      1.00000
     38      -3.6139      1.00000
     39      -3.6139      1.00000
     40      -3.6139      1.00000
     41      -3.6139      1.00000
     42      -3.6139      1.00000
     43      -3.6139      1.00000
     44      -3.3406      1.00000
     45      -3.3406      1.00000
     46      -3.3406      1.00000
     47      -3.3406      1.00000
     48      -3.3406      1.00000
     49      -3.3406      1.00000
     50      -3.2024      1.00000
     51      -3.2024      1.00000
     52      -3.2024      1.00000
     53      -3.2024      1.00000
     54      -3.2024      1.00000
     55      -3.2024      1.00000
     56      -3.0008      1.00000
     57      -3.0008      1.00000
     58      -3.0008      1.00000
     59      -3.0008      1.00000
     60      -3.0008      1.00000
     61      -3.0008      1.00000
     62      -2.7880      1.00000
     63      -2.7880      1.00000
     64      -2.7880      1.00000
     65      -2.7880      1.00000
     66      -2.7880      1.00000
     67      -2.7880      1.00000
     68      -2.7812      1.00000
     69      -2.7812      1.00000
     70      -2.7811      1.00000
     71      -2.6006      1.00000
     72      -2.6006      1.00000
     73      -2.6006      1.00000
     74      -2.6006      1.00000
     75      -2.6006      1.00000
     76      -2.6006      1.00000
     77      -2.5288      1.00000
     78      -2.5288      1.00000
     79      -2.5288      1.00000
     80      -2.5288      1.00000
     81      -2.5288      1.00000
     82      -2.5288      1.00000
     83      -2.2204      1.00000
     84      -2.2204      1.00000
     85      -2.2204      1.00000
     86      -2.2204      1.00000
     87      -2.2204      1.00000
     88      -2.2204      1.00000
     89      -2.1728      1.00000
     90      -2.1728      1.00000
     91      -2.1728      1.00000
     92      -2.1728      1.00000
     93      -2.1728      1.00000
     94      -2.1728      1.00000
     95      -2.1478      1.00000
     96      -2.1478      1.00000
     97      -2.1478      1.00000
     98      -2.1478      1.00000
     99      -2.1478      1.00000
    100      -2.1478      1.00000
    101      -2.1301      1.00000
    102      -2.0810      1.00000
    103      -2.0810      1.00000
    104      -2.0810      1.00000
    105      -1.9479      1.00000
    106      -1.9479      1.00000
    107      -1.9479      1.00000
    108      -1.8284      1.00000
    109      -1.8283      1.00000
    110      -1.8283      1.00000
    111      -1.8283      1.00000
    112      -1.8283      1.00000
    113      -1.8283      1.00000
    114      -1.7755      1.00000
    115      -1.7755      1.00000
    116      -1.7755      1.00000
    117      -1.7755      1.00000
    118      -1.7755      1.00000
    119      -1.7755      1.00000
    120      -1.7544      1.00000
    121      -1.4809      1.00000
    122      -1.4809      1.00000
    123      -1.4809      1.00000
    124      -1.4809      1.00000
    125      -1.4809      1.00000
    126      -1.4809      1.00000
    127      -1.4791      1.00000
    128      -1.4791      1.00000
    129      -1.4791      1.00000
    130      -1.4791      1.00000
    131      -1.4791      1.00000
    132      -1.4791      1.00000
    133      -1.2501      1.00000
    134      -1.2501      1.00000
    135      -1.2501      1.00000
    136      -1.2501      1.00000
    137      -1.2501      1.00000
    138      -1.2501      1.00000
    139      -1.2459      1.00000
    140      -1.2458      1.00000
    141      -1.1006      1.00000
    142      -1.1006      1.00000
    143      -0.9297      1.00000
    144      -0.9297      1.00000
    145      -0.9297      1.00000
    146      -0.9297      1.00000
    147      -0.9297      1.00000
    148      -0.9297      1.00000
    149      -0.8768      1.00000
    150      -0.8768      1.00000
    151      -0.8768      1.00000
    152      -0.8768      1.00000
    153      -0.8768      1.00000
    154      -0.8768      1.00000
    155      -0.8533      1.00000
    156      -0.8533      1.00000
    157      -0.8274      1.00000
    158      -0.8274      1.00000
    159      -0.8274      1.00000
    160      -0.8274      1.00000
    161      -0.8274      1.00000
    162      -0.8274      1.00000
    163      -0.8247      1.00000
    164      -0.8247      1.00000
    165      -0.7400      1.00000
    166      -0.7400      1.00000
    167      -0.7400      1.00000
    168      -0.7400      1.00000
    169      -0.7400      1.00000
    170      -0.7400      1.00000
    171      -0.7175      1.00000
    172      -0.7175      1.00000
    173      -0.7175      1.00000
    174      -0.7175      1.00000
    175      -0.7175      1.00000
    176      -0.7175      1.00000
    177      -0.6791      1.00000
    178      -0.6569      1.00000
    179      -0.6569      1.00000
    180      -0.6569      1.00000
    181      -0.6569      1.00000
    182      -0.6569      1.00000
    183      -0.6569      1.00000
    184      -0.4160      1.00000
    185      -0.4160      1.00000
    186      -0.4160      1.00000
    187      -0.4160      1.00000
    188      -0.4160      1.00000
    189      -0.4160      1.00000
    190      -0.1742      1.00000
    191      -0.1742      1.00000
    192      -0.1742      1.00000
    193      -0.0190      1.00000
    194      -0.0190      1.00000
    195      -0.0189      1.00000
    196      -0.0131      1.00000
    197      -0.0131      1.00000
    198      -0.0131      1.00000
    199      -0.0131      1.00000
    200      -0.0131      1.00000
    201      -0.0131      1.00000
    202       0.1807      1.00000
    203       0.1807      1.00000
    204       0.1808      1.00000
    205       0.1808      1.00000
    206       0.1808      1.00000
    207       0.1808      1.00000
    208       0.2423      1.00000
    209       0.2423      1.00000
    210       0.2424      1.00000
    211       0.2424      1.00000
    212       0.2424      1.00000
    213       0.2424      1.00000
    214       0.5142      1.00000
    215       0.5143      1.00000
    216       0.5143      1.00000
    217       0.5740      1.00000
    218       0.5740      1.00000
    219       0.5740      1.00000
    220       0.5740      1.00000
    221       0.5740      1.00000
    222       0.5740      1.00000
    223       0.7620      1.00000
    224       0.7620      1.00000
    225       0.7620      1.00000
    226       0.7659      1.00000
    227       0.7659      1.00000
    228       0.7660      1.00000
    229       0.7660      1.00000
    230       0.7660      1.00000
    231       0.7660      1.00000
    232       0.7930      1.00000
    233       0.7930      1.00000
    234       0.7930      1.00000
    235       0.7930      1.00000
    236       0.7930      1.00000
    237       0.7930      1.00000
    238       0.8464      1.00000
    239       0.8464      1.00000
    240       0.8464      1.00000
    241       0.8464      1.00000
    242       0.8464      1.00000
    243       0.8464      1.00000
    244       0.9781      1.00000
    245       0.9781      1.00000
    246       0.9781      1.00000
    247       0.9781      1.00000
    248       0.9781      1.00000
    249       0.9781      1.00000
    250       1.0607      1.00000
    251       1.0607      1.00000
    252       1.0607      1.00000
    253       1.0607      1.00000
    254       1.0607      1.00000
    255       1.0607      1.00000
    256       1.1315      1.00000
    257       1.1315      1.00000
    258       1.1316      1.00000
    259       1.1316      1.00000
    260       1.1316      1.00000
    261       1.1316      1.00000
    262       1.1722      1.00000
    263       1.1722      1.00000
    264       1.1722      1.00000
    265       1.1722      1.00000
    266       1.1722      1.00000
    267       1.1722      1.00000
    268       1.3691      1.00000
    269       1.3692      1.00000
    270       1.5445      1.00000
    271       1.5445      1.00000
    272       1.5445      1.00000
    273       1.5445      1.00000
    274       1.5445      1.00000
    275       1.5445      1.00000
    276       1.5845      1.00000
    277       1.5845      1.00000
    278       1.5845      1.00000
    279       1.6992      1.00000
    280       1.6992      1.00000
    281       1.6992      1.00000
    282       1.8236      1.00000
    283       1.8237      1.00000
    284       1.8509      1.00000
    285       2.0099      1.00000
    286       2.0099      1.00000
    287       2.0099      1.00000
    288       2.0099      1.00000
    289       2.0099      1.00000
    290       2.0099      1.00000
    291       2.1238      1.00000
    292       2.1238      1.00000
    293       2.1238      1.00000
    294       2.1238      1.00000
    295       2.1238      1.00000
    296       2.1238      1.00000
    297       2.3378      1.00000
    298       2.3378      1.00000
    299       2.3378      1.00000
    300       2.3601      1.00000
    301       2.3601      1.00000
    302       2.4002      1.00005
    303       2.4002      1.00005
    304       2.4002      1.00005
    305       2.5409      1.01841
    306       2.5409      1.01841
    307       2.5409      1.01841
    308       2.5409      1.01841
    309       2.5409      1.01842
    310       2.5409      1.01842
    311       2.5695      1.03110
    312       2.5695      1.03110
    313       2.5695      1.03110
    314       2.5695      1.03110
    315       2.5695      1.03112
    316       2.5695      1.03112
    317       2.6167      1.01856
    318       2.6167      1.01852
    319       2.6230      1.00824
    320       2.6230      1.00824
    321       2.6230      1.00817
    322       2.6230      1.00817
    323       2.6230      1.00816
    324       2.6230      1.00816
    325       2.6799      0.75133
    326       2.9629     -0.00107
    327       2.9629     -0.00107
    328       2.9630     -0.00107
    329       2.9630     -0.00107
    330       2.9630     -0.00107
    331       2.9630     -0.00107
    332       3.3323     -0.00000
    333       3.3323     -0.00000
    334       3.3323     -0.00000
    335       3.4157     -0.00000
    336       3.4157     -0.00000
    337       3.4157     -0.00000
    338       3.6253     -0.00000
    339       3.6253     -0.00000
    340       3.6253     -0.00000
    341       3.6302     -0.00000
    342       3.6302     -0.00000
    343       3.6302     -0.00000
    344       3.7139     -0.00000
    345       3.7139     -0.00000
    346       3.7139     -0.00000
    347       4.6554     -0.00000
    348       4.6554     -0.00000
    349       4.6554     -0.00000
    350       4.6554     -0.00000
    351       4.6554     -0.00000
    352       4.6554     -0.00000
    353       5.1275     -0.00000
    354       5.1275     -0.00000
    355       5.1275     -0.00000
    356       5.5427      0.00000
    357       5.5427      0.00000
    358       5.5427      0.00000
    359       5.5427      0.00000
    360       5.5427      0.00000
    361       5.5427      0.00000
    362       5.5989      0.00000
    363       5.5989      0.00000
    364       5.5990      0.00000
    365       5.9275      0.00000
    366       5.9275      0.00000
    367       5.9275      0.00000
    368       5.9275      0.00000
    369       5.9275      0.00000
    370       5.9275      0.00000
    371       6.0116      0.00000
    372       6.0116      0.00000
    373       6.0116      0.00000
    374       6.8195      0.00000
    375       6.8195      0.00000
    376       6.8195      0.00000
    377       6.8195      0.00000
    378       6.8195      0.00000
    379       6.8195      0.00000
    380       7.2625      0.00000
    381       7.2625      0.00000
    382       7.2625      0.00000
    383       7.2625      0.00000
    384       7.2625      0.00000
    385       7.2625      0.00000
    386       8.1778      0.00000
    387       8.1935      0.00000
    388       8.4336      0.00000
    389       8.4336      0.00000
    390       8.4336      0.00000
    391       8.4336      0.00000
    392       8.4336      0.00000
    393       8.4336      0.00000
    394       9.3255      0.00000
    395       9.3255      0.00000
    396       9.3255      0.00000
    397       9.3255      0.00000
    398       9.3255      0.00000
    399       9.3255      0.00000
    400       9.7513      0.00000
    401       9.7513      0.00000
    402       9.7514      0.00000
    403       9.9007      0.00000
    404       9.9008      0.00000
    405       9.9014      0.00000
    406       9.9759      0.00000
    407      10.0551      0.00000
    408      10.0551      0.00000
    409      10.0551      0.00000
    410      10.0551      0.00000
    411      10.0551      0.00000
    412      10.0551      0.00000
    413      10.0920      0.00000
    414      10.0921      0.00000
    415      10.0923      0.00000
    416      10.2743      0.00000
    417      10.8701      0.00000
    418      10.9397      0.00000
    419      11.1137      0.00000
    420      11.1941      0.00000

 k-point     2 :       0.5000   -0.0000    0.0000
  band No.  band energies     occupation 
      1      -6.7638      1.00000
      2      -6.7638      1.00000
      3      -5.6764      1.00000
      4      -5.6764      1.00000
      5      -5.6582      1.00000
      6      -5.6582      1.00000
      7      -4.7859      1.00000
      8      -4.7859      1.00000
      9      -4.6518      1.00000
     10      -4.6518      1.00000
     11      -4.6425      1.00000
     12      -4.6425      1.00000
     13      -4.6234      1.00000
     14      -4.6234      1.00000
     15      -4.4566      1.00000
     16      -4.4566      1.00000
     17      -4.2973      1.00000
     18      -4.2973      1.00000
     19      -4.2972      1.00000
     20      -4.2972      1.00000
     21      -4.1570      1.00000
     22      -4.1570      1.00000
     23      -4.1570      1.00000
     24      -4.1570      1.00000
     25      -4.1150      1.00000
     26      -4.1150      1.00000
     27      -4.1150      1.00000
     28      -4.1150      1.00000
     29      -4.0231      1.00000
     30      -4.0231      1.00000
     31      -3.8963      1.00000
     32      -3.8963      1.00000
     33      -3.7999      1.00000
     34      -3.7999      1.00000
     35      -3.7999      1.00000
     36      -3.7999      1.00000
     37      -3.7240      1.00000
     38      -3.7240      1.00000
     39      -3.6286      1.00000
     40      -3.6286      1.00000
     41      -3.6266      1.00000
     42      -3.6266      1.00000
     43      -3.6266      1.00000
     44      -3.6265      1.00000
     45      -3.6192      1.00000
     46      -3.6192      1.00000
     47      -3.6191      1.00000
     48      -3.6191      1.00000
     49      -3.5556      1.00000
     50      -3.5556      1.00000
     51      -3.4744      1.00000
     52      -3.4744      1.00000
     53      -3.4744      1.00000
     54      -3.4744      1.00000
     55      -3.4203      1.00000
     56      -3.4203      1.00000
     57      -3.4203      1.00000
     58      -3.4203      1.00000
     59      -3.2515      1.00000
     60      -3.2515      1.00000
     61      -3.1471      1.00000
     62      -3.1471      1.00000
     63      -3.1471      1.00000
     64      -3.1471      1.00000
     65      -3.0797      1.00000
     66      -3.0797      1.00000
     67      -3.0266      1.00000
     68      -3.0266      1.00000
     69      -3.0266      1.00000
     70      -3.0266      1.00000
     71      -2.8325      1.00000
     72      -2.8325      1.00000
     73      -2.6167      1.00000
     74      -2.6167      1.00000
     75      -2.6167      1.00000
     76      -2.6166      1.00000
     77      -2.6086      1.00000
     78      -2.6086      1.00000
     79      -2.5690      1.00000
     80      -2.5690      1.00000
     81      -2.4460      1.00000
     82      -2.4460      1.00000
     83      -2.4460      1.00000
     84      -2.4460      1.00000
     85      -2.3386      1.00000
     86      -2.3386      1.00000
     87      -2.2943      1.00000
     88      -2.2943      1.00000
     89      -2.2705      1.00000
     90      -2.2705      1.00000
     91      -2.1891      1.00000
     92      -2.1891      1.00000
     93      -2.1807      1.00000
     94      -2.1807      1.00000
     95      -2.1176      1.00000
     96      -2.1176      1.00000
     97      -2.0628      1.00000
     98      -2.0628      1.00000
     99      -2.0561      1.00000
    100      -2.0561      1.00000
    101      -2.0279      1.00000
    102      -2.0279      1.00000
    103      -2.0279      1.00000
    104      -2.0279      1.00000
    105      -1.9879      1.00000
    106      -1.9879      1.00000
    107      -1.9879      1.00000
    108      -1.9879      1.00000
    109      -1.8956      1.00000
    110      -1.8956      1.00000
    111      -1.7338      1.00000
    112      -1.7338      1.00000
    113      -1.7100      1.00000
    114      -1.7100      1.00000
    115      -1.7100      1.00000
    116      -1.7100      1.00000
    117      -1.6982      1.00000
    118      -1.6982      1.00000
    119      -1.6981      1.00000
    120      -1.6981      1.00000
    121      -1.6113      1.00000
    122      -1.6113      1.00000
    123      -1.5628      1.00000
    124      -1.5628      1.00000
    125      -1.5449      1.00000
    126      -1.5449      1.00000
    127      -1.5346      1.00000
    128      -1.5346      1.00000
    129      -1.4915      1.00000
    130      -1.4915      1.00000
    131      -1.3458      1.00000
    132      -1.3458      1.00000
    133      -1.2819      1.00000
    134      -1.2819      1.00000
    135      -1.2191      1.00000
    136      -1.2191      1.00000
    137      -1.2161      1.00000
    138      -1.2161      1.00000
    139      -1.1941      1.00000
    140      -1.1941      1.00000
    141      -1.1941      1.00000
    142      -1.1941      1.00000
    143      -1.1347      1.00000
    144      -1.1347      1.00000
    145      -0.9926      1.00000
    146      -0.9926      1.00000
    147      -0.9221      1.00000
    148      -0.9221      1.00000
    149      -0.9220      1.00000
    150      -0.9220      1.00000
    151      -0.9124      1.00000
    152      -0.9124      1.00000
    153      -0.8777      1.00000
    154      -0.8777      1.00000
    155      -0.8777      1.00000
    156      -0.8777      1.00000
    157      -0.8594      1.00000
    158      -0.8594      1.00000
    159      -0.8213      1.00000
    160      -0.8213      1.00000
    161      -0.8213      1.00000
    162      -0.8213      1.00000
    163      -0.7450      1.00000
    164      -0.7450      1.00000
    165      -0.6847      1.00000
    166      -0.6847      1.00000
    167      -0.6847      1.00000
    168      -0.6847      1.00000
    169      -0.6275      1.00000
    170      -0.6275      1.00000
    171      -0.6244      1.00000
    172      -0.6244      1.00000
    173      -0.3721      1.00000
    174      -0.3720      1.00000
    175      -0.3487      1.00000
    176      -0.3487      1.00000
    177      -0.3486      1.00000
    178      -0.3486      1.00000
    179      -0.3298      1.00000
    180      -0.3298      1.00000
    181      -0.2438      1.00000
    182      -0.2438      1.00000
    183      -0.2073      1.00000
    184      -0.2073      1.00000
    185      -0.2073      1.00000
    186      -0.2073      1.00000
    187      -0.1743      1.00000
    188      -0.1743      1.00000
    189      -0.0831      1.00000
    190      -0.0831      1.00000
    191      -0.0831      1.00000
    192      -0.0831      1.00000
    193      -0.0805      1.00000
    194      -0.0805      1.00000
    195      -0.0593      1.00000
    196      -0.0593      1.00000
    197      -0.0227      1.00000
    198      -0.0227      1.00000
    199       0.0030      1.00000
    200       0.0030      1.00000
    201       0.0696      1.00000
    202       0.0696      1.00000
    203       0.3174      1.00000
    204       0.3174      1.00000
    205       0.3392      1.00000
    206       0.3392      1.00000
    207       0.3392      1.00000
    208       0.3392      1.00000
    209       0.3516      1.00000
    210       0.3516      1.00000
    211       0.5778      1.00000
    212       0.5778      1.00000
    213       0.6107      1.00000
    214       0.6107      1.00000
    215       0.6114      1.00000
    216       0.6114      1.00000
    217       0.6114      1.00000
    218       0.6114      1.00000
    219       0.6869      1.00000
    220       0.6869      1.00000
    221       0.6870      1.00000
    222       0.6870      1.00000
    223       0.7259      1.00000
    224       0.7259      1.00000
    225       0.7434      1.00000
    226       0.7434      1.00000
    227       0.8344      1.00000
    228       0.8344      1.00000
    229       0.8475      1.00000
    230       0.8475      1.00000
    231       0.8624      1.00000
    232       0.8624      1.00000
    233       0.8631      1.00000
    234       0.8631      1.00000
    235       0.8730      1.00000
    236       0.8730      1.00000
    237       0.8730      1.00000
    238       0.8730      1.00000
    239       1.0203      1.00000
    240       1.0203      1.00000
    241       1.0204      1.00000
    242       1.0204      1.00000
    243       1.0324      1.00000
    244       1.0324      1.00000
    245       1.1126      1.00000
    246       1.1126      1.00000
    247       1.1562      1.00000
    248       1.1562      1.00000
    249       1.3023      1.00000
    250       1.3023      1.00000
    251       1.3195      1.00000
    252       1.3195      1.00000
    253       1.3195      1.00000
    254       1.3195      1.00000
    255       1.3209      1.00000
    256       1.3209      1.00000
    257       1.3791      1.00000
    258       1.3791      1.00000
    259       1.3791      1.00000
    260       1.3791      1.00000
    261       1.4838      1.00000
    262       1.4838      1.00000
    263       1.4838      1.00000
    264       1.4838      1.00000
    265       1.7116      1.00000
    266       1.7116      1.00000
    267       1.7282      1.00000
    268       1.7282      1.00000
    269       1.7749      1.00000
    270       1.7749      1.00000
    271       1.7933      1.00000
    272       1.7933      1.00000
    273       1.8068      1.00000
    274       1.8068      1.00000
    275       1.8068      1.00000
    276       1.8068      1.00000
    277       1.8165      1.00000
    278       1.8165      1.00000
    279       1.8248      1.00000
    280       1.8248      1.00000
    281       1.8553      1.00000
    282       1.8553      1.00000
    283       1.8553      1.00000
    284       1.8553      1.00000
    285       1.9323      1.00000
    286       1.9323      1.00000
    287       1.9323      1.00000
    288       1.9323      1.00000
    289       2.0301      1.00000
    290       2.0301      1.00000
    291       2.0960      1.00000
    292       2.0960      1.00000
    293       2.0960      1.00000
    294       2.0960      1.00000
    295       2.1009      1.00000
    296       2.1009      1.00000
    297       2.1977      1.00000
    298       2.1977      1.00000
    299       2.2340      1.00000
    300       2.2340      1.00000
    301       2.2855      1.00000
    302       2.2855      1.00000
    303       2.2947      1.00000
    304       2.2947      1.00000
    305       2.3165      1.00000
    306       2.3165      1.00000
    307       2.3165      1.00000
    308       2.3165      1.00000
    309       2.3177      1.00000
    310       2.3177      1.00000
    311       2.4821      1.00280
    312       2.4821      1.00280
    313       2.5094      1.00753
    314       2.5094      1.00753
    315       2.5194      1.01032
    316       2.5194      1.01032
    317       2.5195      1.01033
    318       2.5195      1.01033
    319       2.6028      1.03184
    320       2.6028      1.03184
    321       2.6069      1.02905
    322       2.6069      1.02905
    323       2.6070      1.02903
    324       2.6070      1.02903
    325       2.6299      0.99337
    326       2.6299      0.99336
    327       2.6739      0.79287
    328       2.6739      0.79287
    329       2.7693      0.08898
    330       2.7693      0.08897
    331       2.8166     -0.02980
    332       2.8166     -0.02980
    333       2.9037     -0.01013
    334       2.9037     -0.01013
    335       2.9037     -0.01013
    336       2.9037     -0.01013
    337       2.9784     -0.00052
    338       2.9784     -0.00052
    339       2.9784     -0.00052
    340       2.9784     -0.00052
    341       2.9953     -0.00022
    342       2.9953     -0.00022
    343       2.9953     -0.00022
    344       2.9953     -0.00022
    345       3.5139     -0.00000
    346       3.5139     -0.00000
    347       3.5810     -0.00000
    348       3.5810     -0.00000
    349       3.6919     -0.00000
    350       3.6919     -0.00000
    351       3.6919     -0.00000
    352       3.6919     -0.00000
    353       4.4247     -0.00000
    354       4.4247     -0.00000
    355       4.8837     -0.00000
    356       4.8837     -0.00000
    357       5.1696     -0.00000
    358       5.1696     -0.00000
    359       5.1696     -0.00000
    360       5.1696     -0.00000
    361       5.6314      0.00000
    362       5.6314      0.00000
    363       5.6314      0.00000
    364       5.6314      0.00000
    365       5.6931      0.00000
    366       5.6931      0.00000
    367       5.6931      0.00000
    368       5.6931      0.00000
    369       5.9177      0.00000
    370       5.9177      0.00000
    371       6.3284      0.00000
    372       6.3284      0.00000
    373       6.3284      0.00000
    374       6.3284      0.00000
    375       6.7072      0.00000
    376       6.7072      0.00000
    377       7.8683      0.00000
    378       7.8683      0.00000
    379       7.8684      0.00000
    380       7.8684      0.00000
    381       7.9559      0.00000
    382       7.9559      0.00000
    383       8.0880      0.00000
    384       8.0880      0.00000
    385       8.4513      0.00000
    386       8.4513      0.00000
    387       8.6618      0.00000
    388       8.6618      0.00000
    389       8.8117      0.00000
    390       8.8117      0.00000
    391       8.9741      0.00000
    392       8.9741      0.00000
    393       8.9741      0.00000
    394       8.9741      0.00000
    395       8.9827      0.00000
    396       8.9827      0.00000
    397       9.0272      0.00000
    398       9.0272      0.00000
    399       9.3650      0.00000
    400       9.3650      0.00000
    401       9.5974      0.00000
    402       9.5974      0.00000
    403       9.6509      0.00000
    404       9.6511      0.00000
    405       9.6539      0.00000
    406       9.6557      0.00000
    407       9.7387      0.00000
    408       9.7389      0.00000
    409      10.2512      0.00000
    410      10.2860      0.00000
    411      10.3195      0.00000
    412      10.3391      0.00000
    413      10.3622      0.00000
    414      10.3745      0.00000
    415      10.3825      0.00000
    416      10.3829      0.00000
    417      10.3836      0.00000
    418      10.3853      0.00000
    419      10.6873      0.00000
    420      10.6976      0.00000

 k-point     3 :       0.5000    0.5000    0.0000
  band No.  band energies     occupation 
      1      -6.7638      1.00000
      2      -6.7638      1.00000
      3      -5.6764      1.00000
      4      -5.6764      1.00000
      5      -5.6582      1.00000
      6      -5.6582      1.00000
      7      -4.7859      1.00000
      8      -4.7859      1.00000
      9      -4.6518      1.00000
     10      -4.6518      1.00000
     11      -4.6425      1.00000
     12      -4.6425      1.00000
     13      -4.6234      1.00000
     14      -4.6234      1.00000
     15      -4.4566      1.00000
     16      -4.4566      1.00000
     17      -4.2972      1.00000
     18      -4.2972      1.00000
     19      -4.2972      1.00000
     20      -4.2972      1.00000
     21      -4.1570      1.00000
     22      -4.1570      1.00000
     23      -4.1570      1.00000
     24      -4.1570      1.00000
     25      -4.1150      1.00000
     26      -4.1150      1.00000
     27      -4.1150      1.00000
     28      -4.1150      1.00000
     29      -4.0231      1.00000
     30      -4.0231      1.00000
     31      -3.8963      1.00000
     32      -3.8963      1.00000
     33      -3.7999      1.00000
     34      -3.7999      1.00000
     35      -3.7999      1.00000
     36      -3.7999      1.00000
     37      -3.7240      1.00000
     38      -3.7240      1.00000
     39      -3.6286      1.00000
     40      -3.6286      1.00000
     41      -3.6266      1.00000
     42      -3.6266      1.00000
     43      -3.6266      1.00000
     44      -3.6266      1.00000
     45      -3.6192      1.00000
     46      -3.6192      1.00000
     47      -3.6192      1.00000
     48      -3.6192      1.00000
     49      -3.5556      1.00000
     50      -3.5556      1.00000
     51      -3.4744      1.00000
     52      -3.4744      1.00000
     53      -3.4744      1.00000
     54      -3.4744      1.00000
     55      -3.4203      1.00000
     56      -3.4203      1.00000
     57      -3.4203      1.00000
     58      -3.4203      1.00000
     59      -3.2515      1.00000
     60      -3.2515      1.00000
     61      -3.1470      1.00000
     62      -3.1470      1.00000
     63      -3.1470      1.00000
     64      -3.1470      1.00000
     65      -3.0797      1.00000
     66      -3.0797      1.00000
     67      -3.0266      1.00000
     68      -3.0266      1.00000
     69      -3.0266      1.00000
     70      -3.0266      1.00000
     71      -2.8325      1.00000
     72      -2.8325      1.00000
     73      -2.6167      1.00000
     74      -2.6167      1.00000
     75      -2.6167      1.00000
     76      -2.6167      1.00000
     77      -2.6086      1.00000
     78      -2.6086      1.00000
     79      -2.5690      1.00000
     80      -2.5690      1.00000
     81      -2.4460      1.00000
     82      -2.4460      1.00000
     83      -2.4460      1.00000
     84      -2.4460      1.00000
     85      -2.3386      1.00000
     86      -2.3386      1.00000
     87      -2.2943      1.00000
     88      -2.2943      1.00000
     89      -2.2705      1.00000
     90      -2.2705      1.00000
     91      -2.1891      1.00000
     92      -2.1891      1.00000
     93      -2.1807      1.00000
     94      -2.1807      1.00000
     95      -2.1176      1.00000
     96      -2.1176      1.00000
     97      -2.0628      1.00000
     98      -2.0628      1.00000
     99      -2.0561      1.00000
    100      -2.0561      1.00000
    101      -2.0279      1.00000
    102      -2.0279      1.00000
    103      -2.0279      1.00000
    104      -2.0279      1.00000
    105      -1.9879      1.00000
    106      -1.9879      1.00000
    107      -1.9879      1.00000
    108      -1.9879      1.00000
    109      -1.8956      1.00000
    110      -1.8956      1.00000
    111      -1.7338      1.00000
    112      -1.7338      1.00000
    113      -1.7100      1.00000
    114      -1.7100      1.00000
    115      -1.7100      1.00000
    116      -1.7100      1.00000
    117      -1.6981      1.00000
    118      -1.6981      1.00000
    119      -1.6981      1.00000
    120      -1.6981      1.00000
    121      -1.6113      1.00000
    122      -1.6113      1.00000
    123      -1.5628      1.00000
    124      -1.5628      1.00000
    125      -1.5449      1.00000
    126      -1.5449      1.00000
    127      -1.5346      1.00000
    128      -1.5346      1.00000
    129      -1.4915      1.00000
    130      -1.4915      1.00000
    131      -1.3458      1.00000
    132      -1.3458      1.00000
    133      -1.2820      1.00000
    134      -1.2820      1.00000
    135      -1.2191      1.00000
    136      -1.2191      1.00000
    137      -1.2161      1.00000
    138      -1.2161      1.00000
    139      -1.1941      1.00000
    140      -1.1941      1.00000
    141      -1.1941      1.00000
    142      -1.1941      1.00000
    143      -1.1347      1.00000
    144      -1.1347      1.00000
    145      -0.9926      1.00000
    146      -0.9926      1.00000
    147      -0.9221      1.00000
    148      -0.9221      1.00000
    149      -0.9221      1.00000
    150      -0.9221      1.00000
    151      -0.9124      1.00000
    152      -0.9124      1.00000
    153      -0.8777      1.00000
    154      -0.8777      1.00000
    155      -0.8777      1.00000
    156      -0.8777      1.00000
    157      -0.8594      1.00000
    158      -0.8594      1.00000
    159      -0.8213      1.00000
    160      -0.8213      1.00000
    161      -0.8213      1.00000
    162      -0.8213      1.00000
    163      -0.7450      1.00000
    164      -0.7450      1.00000
    165      -0.6847      1.00000
    166      -0.6847      1.00000
    167      -0.6847      1.00000
    168      -0.6847      1.00000
    169      -0.6275      1.00000
    170      -0.6275      1.00000
    171      -0.6244      1.00000
    172      -0.6244      1.00000
    173      -0.3721      1.00000
    174      -0.3720      1.00000
    175      -0.3487      1.00000
    176      -0.3487      1.00000
    177      -0.3487      1.00000
    178      -0.3487      1.00000
    179      -0.3298      1.00000
    180      -0.3298      1.00000
    181      -0.2438      1.00000
    182      -0.2438      1.00000
    183      -0.2073      1.00000
    184      -0.2073      1.00000
    185      -0.2073      1.00000
    186      -0.2073      1.00000
    187      -0.1743      1.00000
    188      -0.1743      1.00000
    189      -0.0831      1.00000
    190      -0.0831      1.00000
    191      -0.0831      1.00000
    192      -0.0831      1.00000
    193      -0.0805      1.00000
    194      -0.0805      1.00000
    195      -0.0593      1.00000
    196      -0.0593      1.00000
    197      -0.0227      1.00000
    198      -0.0227      1.00000
    199       0.0030      1.00000
    200       0.0030      1.00000
    201       0.0696      1.00000
    202       0.0696      1.00000
    203       0.3174      1.00000
    204       0.3174      1.00000
    205       0.3393      1.00000
    206       0.3393      1.00000
    207       0.3393      1.00000
    208       0.3393      1.00000
    209       0.3516      1.00000
    210       0.3516      1.00000
    211       0.5778      1.00000
    212       0.5778      1.00000
    213       0.6107      1.00000
    214       0.6107      1.00000
    215       0.6114      1.00000
    216       0.6114      1.00000
    217       0.6114      1.00000
    218       0.6114      1.00000
    219       0.6869      1.00000
    220       0.6869      1.00000
    221       0.6870      1.00000
    222       0.6870      1.00000
    223       0.7259      1.00000
    224       0.7259      1.00000
    225       0.7434      1.00000
    226       0.7434      1.00000
    227       0.8344      1.00000
    228       0.8344      1.00000
    229       0.8475      1.00000
    230       0.8475      1.00000
    231       0.8624      1.00000
    232       0.8624      1.00000
    233       0.8631      1.00000
    234       0.8631      1.00000
    235       0.8730      1.00000
    236       0.8730      1.00000
    237       0.8730      1.00000
    238       0.8730      1.00000
    239       1.0203      1.00000
    240       1.0203      1.00000
    241       1.0203      1.00000
    242       1.0203      1.00000
    243       1.0324      1.00000
    244       1.0324      1.00000
    245       1.1125      1.00000
    246       1.1125      1.00000
    247       1.1563      1.00000
    248       1.1563      1.00000
    249       1.3024      1.00000
    250       1.3024      1.00000
    251       1.3195      1.00000
    252       1.3195      1.00000
    253       1.3195      1.00000
    254       1.3195      1.00000
    255       1.3209      1.00000
    256       1.3209      1.00000
    257       1.3791      1.00000
    258       1.3791      1.00000
    259       1.3791      1.00000
    260       1.3791      1.00000
    261       1.4838      1.00000
    262       1.4838      1.00000
    263       1.4838      1.00000
    264       1.4838      1.00000
    265       1.7116      1.00000
    266       1.7116      1.00000
    267       1.7282      1.00000
    268       1.7282      1.00000
    269       1.7749      1.00000
    270       1.7749      1.00000
    271       1.7933      1.00000
    272       1.7933      1.00000
    273       1.8068      1.00000
    274       1.8068      1.00000
    275       1.8068      1.00000
    276       1.8068      1.00000
    277       1.8165      1.00000
    278       1.8165      1.00000
    279       1.8248      1.00000
    280       1.8248      1.00000
    281       1.8553      1.00000
    282       1.8553      1.00000
    283       1.8553      1.00000
    284       1.8553      1.00000
    285       1.9323      1.00000
    286       1.9323      1.00000
    287       1.9323      1.00000
    288       1.9323      1.00000
    289       2.0301      1.00000
    290       2.0301      1.00000
    291       2.0960      1.00000
    292       2.0960      1.00000
    293       2.0960      1.00000
    294       2.0960      1.00000
    295       2.1009      1.00000
    296       2.1009      1.00000
    297       2.1977      1.00000
    298       2.1977      1.00000
    299       2.2340      1.00000
    300       2.2340      1.00000
    301       2.2855      1.00000
    302       2.2855      1.00000
    303       2.2947      1.00000
    304       2.2947      1.00000
    305       2.3165      1.00000
    306       2.3165      1.00000
    307       2.3165      1.00000
    308       2.3165      1.00000
    309       2.3177      1.00000
    310       2.3177      1.00000
    311       2.4822      1.00280
    312       2.4822      1.00280
    313       2.5094      1.00753
    314       2.5094      1.00753
    315       2.5195      1.01033
    316       2.5195      1.01033
    317       2.5195      1.01033
    318       2.5195      1.01033
    319       2.6028      1.03183
    320       2.6028      1.03183
    321       2.6070      1.02902
    322       2.6070      1.02902
    323       2.6070      1.02902
    324       2.6070      1.02902
    325       2.6299      0.99340
    326       2.6299      0.99340
    327       2.6739      0.79271
    328       2.6739      0.79271
    329       2.7693      0.08897
    330       2.7693      0.08896
    331       2.8166     -0.02980
    332       2.8166     -0.02980
    333       2.9037     -0.01013
    334       2.9037     -0.01013
    335       2.9037     -0.01013
    336       2.9037     -0.01013
    337       2.9784     -0.00052
    338       2.9784     -0.00052
    339       2.9784     -0.00052
    340       2.9784     -0.00052
    341       2.9953     -0.00022
    342       2.9953     -0.00022
    343       2.9953     -0.00022
    344       2.9953     -0.00022
    345       3.5139     -0.00000
    346       3.5139     -0.00000
    347       3.5810     -0.00000
    348       3.5810     -0.00000
    349       3.6919     -0.00000
    350       3.6919     -0.00000
    351       3.6919     -0.00000
    352       3.6919     -0.00000
    353       4.4247     -0.00000
    354       4.4247     -0.00000
    355       4.8837     -0.00000
    356       4.8837     -0.00000
    357       5.1696     -0.00000
    358       5.1696     -0.00000
    359       5.1696     -0.00000
    360       5.1696     -0.00000
    361       5.6313      0.00000
    362       5.6313      0.00000
    363       5.6314      0.00000
    364       5.6314      0.00000
    365       5.6931      0.00000
    366       5.6931      0.00000
    367       5.6931      0.00000
    368       5.6931      0.00000
    369       5.9177      0.00000
    370       5.9177      0.00000
    371       6.3284      0.00000
    372       6.3284      0.00000
    373       6.3284      0.00000
    374       6.3284      0.00000
    375       6.7072      0.00000
    376       6.7072      0.00000
    377       7.8683      0.00000
    378       7.8683      0.00000
    379       7.8683      0.00000
    380       7.8683      0.00000
    381       7.9559      0.00000
    382       7.9559      0.00000
    383       8.0880      0.00000
    384       8.0880      0.00000
    385       8.4513      0.00000
    386       8.4513      0.00000
    387       8.6618      0.00000
    388       8.6618      0.00000
    389       8.8117      0.00000
    390       8.8117      0.00000
    391       8.9741      0.00000
    392       8.9741      0.00000
    393       8.9741      0.00000
    394       8.9741      0.00000
    395       8.9827      0.00000
    396       8.9827      0.00000
    397       9.0272      0.00000
    398       9.0272      0.00000
    399       9.3649      0.00000
    400       9.3649      0.00000
    401       9.5974      0.00000
    402       9.5974      0.00000
    403       9.6509      0.00000
    404       9.6510      0.00000
    405       9.6525      0.00000
    406       9.6540      0.00000
    407       9.7387      0.00000
    408       9.7390      0.00000
    409      10.2507      0.00000
    410      10.2612      0.00000
    411      10.3194      0.00000
    412      10.3224      0.00000
    413      10.3624      0.00000
    414      10.3713      0.00000
    415      10.3814      0.00000
    416      10.3830      0.00000
    417      10.3834      0.00000
    418      10.3835      0.00000
    419      10.6733      0.00000
    420      10.7014      0.00000

 spin component 2

 k-point     1 :       0.0000    0.0000    0.0000
  band No.  band energies     occupation 
      1      -7.3483      1.00000
      2      -6.2700      1.00000
      3      -5.3920      1.00000
      4      -5.2653      1.00000
      5      -5.2653      1.00000
      6      -5.2652      1.00000
      7      -5.2652      1.00000
      8      -5.2652      1.00000
      9      -5.2652      1.00000
     10      -5.1987      1.00000
     11      -4.5737      1.00000
     12      -4.5737      1.00000
     13      -4.5737      1.00000
     14      -4.5484      1.00000
     15      -4.5484      1.00000
     16      -4.5484      1.00000
     17      -4.4116      1.00000
     18      -4.4116      1.00000
     19      -4.4116      1.00000
     20      -4.4116      1.00000
     21      -4.4116      1.00000
     22      -4.4116      1.00000
     23      -4.1343      1.00000
     24      -4.1343      1.00000
     25      -4.1343      1.00000
     26      -4.0719      1.00000
     27      -4.0719      1.00000
     28      -4.0719      1.00000
     29      -3.7792      1.00000
     30      -3.7792      1.00000
     31      -3.7792      1.00000
     32      -3.7792      1.00000
     33      -3.7792      1.00000
     34      -3.7792      1.00000
     35      -3.7018      1.00000
     36      -3.7018      1.00000
     37      -3.7018      1.00000
     38      -3.5303      1.00000
     39      -3.5303      1.00000
     40      -3.5303      1.00000
     41      -3.5303      1.00000
     42      -3.5303      1.00000
     43      -3.5303      1.00000
     44      -3.2188      1.00000
     45      -3.2188      1.00000
     46      -3.2188      1.00000
     47      -3.2188      1.00000
     48      -3.2188      1.00000
     49      -3.2188      1.00000
     50      -3.0719      1.00000
     51      -3.0719      1.00000
     52      -3.0719      1.00000
     53      -3.0719      1.00000
     54      -3.0719      1.00000
     55      -3.0719      1.00000
     56      -2.8955      1.00000
     57      -2.8955      1.00000
     58      -2.8955      1.00000
     59      -2.8955      1.00000
     60      -2.8955      1.00000
     61      -2.8955      1.00000
     62      -2.6683      1.00000
     63      -2.6683      1.00000
     64      -2.6683      1.00000
     65      -2.6472      1.00000
     66      -2.6472      1.00000
     67      -2.6472      1.00000
     68      -2.6472      1.00000
     69      -2.6472      1.00000
     70      -2.6472      1.00000
     71      -2.4983      1.00000
     72      -2.4983      1.00000
     73      -2.4983      1.00000
     74      -2.4983      1.00000
     75      -2.4983      1.00000
     76      -2.4983      1.00000
     77      -2.4016      1.00000
     78      -2.4016      1.00000
     79      -2.4016      1.00000
     80      -2.4016      1.00000
     81      -2.4016      1.00000
     82      -2.4016      1.00000
     83      -2.1233      1.00000
     84      -2.1233      1.00000
     85      -2.1233      1.00000
     86      -2.1233      1.00000
     87      -2.1233      1.00000
     88      -2.1233      1.00000
     89      -2.1054      1.00000
     90      -2.1054      1.00000
     91      -2.1054      1.00000
     92      -2.1054      1.00000
     93      -2.1054      1.00000
     94      -2.1054      1.00000
     95      -2.0438      1.00000
     96      -2.0438      1.00000
     97      -2.0438      1.00000
     98      -2.0438      1.00000
     99      -2.0438      1.00000
    100      -2.0438      1.00000
    101      -1.9749      1.00000
    102      -1.9505      1.00000
    103      -1.9505      1.00000
    104      -1.9504      1.00000
    105      -1.8421      1.00000
    106      -1.8421      1.00000
    107      -1.8421      1.00000
    108      -1.7046      1.00000
    109      -1.7046      1.00000
    110      -1.7046      1.00000
    111      -1.7046      1.00000
    112      -1.7046      1.00000
    113      -1.7046      1.00000
    114      -1.6368      1.00000
    115      -1.6314      1.00000
    116      -1.6314      1.00000
    117      -1.6314      1.00000
    118      -1.6314      1.00000
    119      -1.6314      1.00000
    120      -1.6314      1.00000
    121      -1.3455      1.00000
    122      -1.3455      1.00000
    123      -1.3455      1.00000
    124      -1.3455      1.00000
    125      -1.3454      1.00000
    126      -1.3454      1.00000
    127      -1.3308      1.00000
    128      -1.3308      1.00000
    129      -1.3307      1.00000
    130      -1.3307      1.00000
    131      -1.3307      1.00000
    132      -1.3307      1.00000
    133      -1.1414      1.00000
    134      -1.1414      1.00000
    135      -1.1414      1.00000
    136      -1.1414      1.00000
    137      -1.1414      1.00000
    138      -1.1414      1.00000
    139      -1.0808      1.00000
    140      -1.0808      1.00000
    141      -0.9160      1.00000
    142      -0.9160      1.00000
    143      -0.8519      1.00000
    144      -0.8519      1.00000
    145      -0.8519      1.00000
    146      -0.8519      1.00000
    147      -0.8518      1.00000
    148      -0.8518      1.00000
    149      -0.7892      1.00000
    150      -0.7892      1.00000
    151      -0.7892      1.00000
    152      -0.7892      1.00000
    153      -0.7892      1.00000
    154      -0.7892      1.00000
    155      -0.7732      1.00000
    156      -0.7732      1.00000
    157      -0.7438      1.00000
    158      -0.7438      1.00000
    159      -0.7438      1.00000
    160      -0.7438      1.00000
    161      -0.7438      1.00000
    162      -0.7438      1.00000
    163      -0.7426      1.00000
    164      -0.7426      1.00000
    165      -0.6349      1.00000
    166      -0.6349      1.00000
    167      -0.6349      1.00000
    168      -0.6349      1.00000
    169      -0.6349      1.00000
    170      -0.6349      1.00000
    171      -0.6116      1.00000
    172      -0.6116      1.00000
    173      -0.6116      1.00000
    174      -0.6116      1.00000
    175      -0.6116      1.00000
    176      -0.6116      1.00000
    177      -0.5753      1.00000
    178      -0.5654      1.00000
    179      -0.5654      1.00000
    180      -0.5654      1.00000
    181      -0.5654      1.00000
    182      -0.5654      1.00000
    183      -0.5654      1.00000
    184      -0.3022      1.00000
    185      -0.3022      1.00000
    186      -0.3022      1.00000
    187      -0.3022      1.00000
    188      -0.3022      1.00000
    189      -0.3022      1.00000
    190       0.0058      1.00000
    191       0.0058      1.00000
    192       0.0058      1.00000
    193       0.1025      1.00000
    194       0.1025      1.00000
    195       0.1025      1.00000
    196       0.1256      1.00000
    197       0.1256      1.00000
    198       0.1256      1.00000
    199       0.1256      1.00000
    200       0.1256      1.00000
    201       0.1256      1.00000
    202       0.3259      1.00000
    203       0.3259      1.00000
    204       0.3259      1.00000
    205       0.3259      1.00000
    206       0.3259      1.00000
    207       0.3259      1.00000
    208       0.4398      1.00000
    209       0.4398      1.00000
    210       0.4398      1.00000
    211       0.4398      1.00000
    212       0.4398      1.00000
    213       0.4398      1.00000
    214       0.6472      1.00000
    215       0.6472      1.00000
    216       0.6472      1.00000
    217       0.7296      1.00000
    218       0.7296      1.00000
    219       0.7296      1.00000
    220       0.7296      1.00000
    221       0.7296      1.00000
    222       0.7296      1.00000
    223       0.9123      1.00000
    224       0.9123      1.00000
    225       0.9123      1.00000
    226       0.9233      1.00000
    227       0.9233      1.00000
    228       0.9233      1.00000
    229       0.9233      1.00000
    230       0.9233      1.00000
    231       0.9233      1.00000
    232       0.9312      1.00000
    233       0.9312      1.00000
    234       0.9312      1.00000
    235       0.9312      1.00000
    236       0.9312      1.00000
    237       0.9312      1.00000
    238       0.9826      1.00000
    239       0.9826      1.00000
    240       0.9826      1.00000
    241       0.9826      1.00000
    242       0.9826      1.00000
    243       0.9826      1.00000
    244       1.0798      1.00000
    245       1.0798      1.00000
    246       1.0798      1.00000
    247       1.0798      1.00000
    248       1.0798      1.00000
    249       1.0798      1.00000
    250       1.2321      1.00000
    251       1.2321      1.00000
    252       1.2321      1.00000
    253       1.2321      1.00000
    254       1.2321      1.00000
    255       1.2321      1.00000
    256       1.2699      1.00000
    257       1.2699      1.00000
    258       1.2699      1.00000
    259       1.2699      1.00000
    260       1.2699      1.00000
    261       1.2699      1.00000
    262       1.3073      1.00000
    263       1.3073      1.00000
    264       1.3073      1.00000
    265       1.3073      1.00000
    266       1.3073      1.00000
    267       1.3073      1.00000
    268       1.5533      1.00000
    269       1.5534      1.00000
    270       1.6901      1.00000
    271       1.6901      1.00000
    272       1.6901      1.00000
    273       1.6901      1.00000
    274       1.6901      1.00000
    275       1.6901      1.00000
    276       1.7410      1.00000
    277       1.7410      1.00000
    278       1.7410      1.00000
    279       1.8360      1.00000
    280       1.8360      1.00000
    281       1.8360      1.00000
    282       1.9752      1.00000
    283       1.9919      1.00000
    284       1.9919      1.00000
    285       2.1880      1.00000
    286       2.1880      1.00000
    287       2.1880      1.00000
    288       2.1880      1.00000
    289       2.1880      1.00000
    290       2.1880      1.00000
    291       2.2681      1.00000
    292       2.2681      1.00000
    293       2.2681      1.00000
    294       2.2681      1.00000
    295       2.2681      1.00000
    296       2.2681      1.00000
    297       2.4979      1.00507
    298       2.4979      1.00508
    299       2.5128      1.00841
    300       2.5128      1.00841
    301       2.5128      1.00842
    302       2.5634      1.02860
    303       2.5634      1.02861
    304       2.5634      1.02861
    305       2.7276      0.36374
    306       2.7276      0.36374
    307       2.7276      0.36374
    308       2.7276      0.36373
    309       2.7276      0.36359
    310       2.7276      0.36359
    311       2.7451      0.23100
    312       2.7451      0.23100
    313       2.7451      0.23100
    314       2.7451      0.23100
    315       2.7451      0.23071
    316       2.7451      0.23071
    317       2.7567      0.15584
    318       2.7932      0.00506
    319       2.7933      0.00496
    320       2.7984     -0.00612
    321       2.7984     -0.00612
    322       2.7984     -0.00622
    323       2.7984     -0.00622
    324       2.7984     -0.00622
    325       2.7984     -0.00622
    326       3.1637     -0.00000
    327       3.1637     -0.00000
    328       3.1637     -0.00000
    329       3.1637     -0.00000
    330       3.1637     -0.00000
    331       3.1637     -0.00000
    332       3.5406     -0.00000
    333       3.5406     -0.00000
    334       3.5406     -0.00000
    335       3.6215     -0.00000
    336       3.6215     -0.00000
    337       3.6215     -0.00000
    338       3.7164     -0.00000
    339       3.7164     -0.00000
    340       3.7164     -0.00000
    341       3.7305     -0.00000
    342       3.7305     -0.00000
    343       3.7305     -0.00000
    344       3.7702     -0.00000
    345       3.7702     -0.00000
    346       3.7702     -0.00000
    347       4.7965     -0.00000
    348       4.7965     -0.00000
    349       4.7965     -0.00000
    350       4.7965     -0.00000
    351       4.7965     -0.00000
    352       4.7965     -0.00000
    353       5.1742     -0.00000
    354       5.1742     -0.00000
    355       5.1742     -0.00000
    356       5.6780      0.00000
    357       5.6780      0.00000
    358       5.6781      0.00000
    359       5.6844      0.00000
    360       5.6844      0.00000
    361       5.6844      0.00000
    362       5.6844      0.00000
    363       5.6844      0.00000
    364       5.6844      0.00000
    365       6.0169      0.00000
    366       6.0169      0.00000
    367       6.0169      0.00000
    368       6.0169      0.00000
    369       6.0169      0.00000
    370       6.0169      0.00000
    371       6.0921      0.00000
    372       6.0922      0.00000
    373       6.0922      0.00000
    374       6.9120      0.00000
    375       6.9120      0.00000
    376       6.9120      0.00000
    377       6.9120      0.00000
    378       6.9120      0.00000
    379       6.9120      0.00000
    380       7.3574      0.00000
    381       7.3574      0.00000
    382       7.3574      0.00000
    383       7.3574      0.00000
    384       7.3574      0.00000
    385       7.3574      0.00000
    386       8.1958      0.00000
    387       8.2398      0.00000
    388       8.5451      0.00000
    389       8.5451      0.00000
    390       8.5451      0.00000
    391       8.5451      0.00000
    392       8.5451      0.00000
    393       8.5451      0.00000
    394       9.3923      0.00000
    395       9.3923      0.00000
    396       9.3923      0.00000
    397       9.3923      0.00000
    398       9.3924      0.00000
    399       9.3924      0.00000
    400       9.8711      0.00000
    401       9.8712      0.00000
    402       9.8713      0.00000
    403       9.9913      0.00000
    404       9.9913      0.00000
    405       9.9914      0.00000
    406      10.0403      0.00000
    407      10.0620      0.00000
    408      10.0620      0.00000
    409      10.0620      0.00000
    410      10.0620      0.00000
    411      10.0620      0.00000
    412      10.0620      0.00000
    413      10.2088      0.00000
    414      10.2089      0.00000
    415      10.2093      0.00000
    416      10.2988      0.00000
    417      10.9649      0.00000
    418      11.0090      0.00000
    419      11.0764      0.00000
    420      11.2727      0.00000

 k-point     2 :       0.5000   -0.0000    0.0000
  band No.  band energies     occupation 
      1      -6.7202      1.00000
      2      -6.7201      1.00000
      3      -5.6383      1.00000
      4      -5.6383      1.00000
      5      -5.6116      1.00000
      6      -5.6116      1.00000
      7      -4.7441      1.00000
      8      -4.7441      1.00000
      9      -4.5813      1.00000
     10      -4.5813      1.00000
     11      -4.5733      1.00000
     12      -4.5732      1.00000
     13      -4.5306      1.00000
     14      -4.5306      1.00000
     15      -4.3512      1.00000
     16      -4.3512      1.00000
     17      -4.2183      1.00000
     18      -4.2183      1.00000
     19      -4.2183      1.00000
     20      -4.2183      1.00000
     21      -4.0321      1.00000
     22      -4.0321      1.00000
     23      -4.0321      1.00000
     24      -4.0321      1.00000
     25      -4.0058      1.00000
     26      -4.0058      1.00000
     27      -4.0058      1.00000
     28      -4.0058      1.00000
     29      -3.9662      1.00000
     30      -3.9662      1.00000
     31      -3.8161      1.00000
     32      -3.8161      1.00000
     33      -3.7176      1.00000
     34      -3.7176      1.00000
     35      -3.7176      1.00000
     36      -3.7176      1.00000
     37      -3.6775      1.00000
     38      -3.6775      1.00000
     39      -3.5567      1.00000
     40      -3.5567      1.00000
     41      -3.5567      1.00000
     42      -3.5567      1.00000
     43      -3.5384      1.00000
     44      -3.5384      1.00000
     45      -3.4832      1.00000
     46      -3.4832      1.00000
     47      -3.4832      1.00000
     48      -3.4832      1.00000
     49      -3.4144      1.00000
     50      -3.4144      1.00000
     51      -3.3942      1.00000
     52      -3.3942      1.00000
     53      -3.3942      1.00000
     54      -3.3942      1.00000
     55      -3.3399      1.00000
     56      -3.3399      1.00000
     57      -3.3399      1.00000
     58      -3.3399      1.00000
     59      -3.1309      1.00000
     60      -3.1309      1.00000
     61      -3.0118      1.00000
     62      -3.0118      1.00000
     63      -3.0118      1.00000
     64      -3.0118      1.00000
     65      -2.9413      1.00000
     66      -2.9413      1.00000
     67      -2.9243      1.00000
     68      -2.9243      1.00000
     69      -2.9243      1.00000
     70      -2.9243      1.00000
     71      -2.6946      1.00000
     72      -2.6946      1.00000
     73      -2.5070      1.00000
     74      -2.5070      1.00000
     75      -2.5070      1.00000
     76      -2.5070      1.00000
     77      -2.5012      1.00000
     78      -2.5012      1.00000
     79      -2.4806      1.00000
     80      -2.4806      1.00000
     81      -2.3497      1.00000
     82      -2.3497      1.00000
     83      -2.3497      1.00000
     84      -2.3497      1.00000
     85      -2.2252      1.00000
     86      -2.2252      1.00000
     87      -2.1377      1.00000
     88      -2.1377      1.00000
     89      -2.1216      1.00000
     90      -2.1216      1.00000
     91      -2.0932      1.00000
     92      -2.0932      1.00000
     93      -2.0547      1.00000
     94      -2.0547      1.00000
     95      -2.0091      1.00000
     96      -2.0091      1.00000
     97      -1.9410      1.00000
     98      -1.9410      1.00000
     99      -1.9185      1.00000
    100      -1.9185      1.00000
    101      -1.9185      1.00000
    102      -1.9185      1.00000
    103      -1.9045      1.00000
    104      -1.9045      1.00000
    105      -1.8732      1.00000
    106      -1.8732      1.00000
    107      -1.8731      1.00000
    108      -1.8731      1.00000
    109      -1.7544      1.00000
    110      -1.7544      1.00000
    111      -1.6627      1.00000
    112      -1.6627      1.00000
    113      -1.5725      1.00000
    114      -1.5725      1.00000
    115      -1.5725      1.00000
    116      -1.5725      1.00000
    117      -1.5713      1.00000
    118      -1.5713      1.00000
    119      -1.5713      1.00000
    120      -1.5713      1.00000
    121      -1.4715      1.00000
    122      -1.4715      1.00000
    123      -1.4633      1.00000
    124      -1.4633      1.00000
    125      -1.4197      1.00000
    126      -1.4197      1.00000
    127      -1.4137      1.00000
    128      -1.4137      1.00000
    129      -1.3636      1.00000
    130      -1.3636      1.00000
    131      -1.2071      1.00000
    132      -1.2071      1.00000
    133      -1.1535      1.00000
    134      -1.1535      1.00000
    135      -1.1343      1.00000
    136      -1.1343      1.00000
    137      -1.0951      1.00000
    138      -1.0951      1.00000
    139      -1.0753      1.00000
    140      -1.0753      1.00000
    141      -1.0753      1.00000
    142      -1.0753      1.00000
    143      -1.0098      1.00000
    144      -1.0098      1.00000
    145      -0.9052      1.00000
    146      -0.9052      1.00000
    147      -0.8028      1.00000
    148      -0.8028      1.00000
    149      -0.8028      1.00000
    150      -0.8028      1.00000
    151      -0.7890      1.00000
    152      -0.7890      1.00000
    153      -0.7890      1.00000
    154      -0.7890      1.00000
    155      -0.7831      1.00000
    156      -0.7831      1.00000
    157      -0.7466      1.00000
    158      -0.7466      1.00000
    159      -0.7466      1.00000
    160      -0.7466      1.00000
    161      -0.7412      1.00000
    162      -0.7412      1.00000
    163      -0.5796      1.00000
    164      -0.5796      1.00000
    165      -0.5378      1.00000
    166      -0.5378      1.00000
    167      -0.5378      1.00000
    168      -0.5378      1.00000
    169      -0.5159      1.00000
    170      -0.5159      1.00000
    171      -0.4304      1.00000
    172      -0.4304      1.00000
    173      -0.2933      1.00000
    174      -0.2933      1.00000
    175      -0.2450      1.00000
    176      -0.2450      1.00000
    177      -0.2211      1.00000
    178      -0.2211      1.00000
    179      -0.2210      1.00000
    180      -0.2210      1.00000
    181      -0.1658      1.00000
    182      -0.1658      1.00000
    183      -0.1009      1.00000
    184      -0.1009      1.00000
    185      -0.0590      1.00000
    186      -0.0590      1.00000
    187      -0.0590      1.00000
    188      -0.0590      1.00000
    189       0.0634      1.00000
    190       0.0634      1.00000
    191       0.0634      1.00000
    192       0.0634      1.00000
    193       0.0649      1.00000
    194       0.0649      1.00000
    195       0.0694      1.00000
    196       0.0694      1.00000
    197       0.1324      1.00000
    198       0.1324      1.00000
    199       0.1602      1.00000
    200       0.1602      1.00000
    201       0.1910      1.00000
    202       0.1910      1.00000
    203       0.5038      1.00000
    204       0.5038      1.00000
    205       0.5038      1.00000
    206       0.5038      1.00000
    207       0.5057      1.00000
    208       0.5057      1.00000
    209       0.5064      1.00000
    210       0.5064      1.00000
    211       0.6945      1.00000
    212       0.6945      1.00000
    213       0.7312      1.00000
    214       0.7312      1.00000
    215       0.7312      1.00000
    216       0.7312      1.00000
    217       0.7810      1.00000
    218       0.7810      1.00000
    219       0.8320      1.00000
    220       0.8320      1.00000
    221       0.8469      1.00000
    222       0.8469      1.00000
    223       0.8469      1.00000
    224       0.8469      1.00000
    225       0.8511      1.00000
    226       0.8511      1.00000
    227       0.9405      1.00000
    228       0.9405      1.00000
    229       0.9645      1.00000
    230       0.9645      1.00000
    231       0.9709      1.00000
    232       0.9709      1.00000
    233       0.9709      1.00000
    234       0.9709      1.00000
    235       0.9983      1.00000
    236       0.9983      1.00000
    237       1.0153      1.00000
    238       1.0153      1.00000
    239       1.1221      1.00000
    240       1.1221      1.00000
    241       1.1221      1.00000
    242       1.1221      1.00000
    243       1.1391      1.00000
    244       1.1391      1.00000
    245       1.2881      1.00000
    246       1.2881      1.00000
    247       1.3280      1.00000
    248       1.3280      1.00000
    249       1.4057      1.00000
    250       1.4057      1.00000
    251       1.4540      1.00000
    252       1.4540      1.00000
    253       1.4650      1.00000
    254       1.4650      1.00000
    255       1.4650      1.00000
    256       1.4650      1.00000
    257       1.5026      1.00000
    258       1.5026      1.00000
    259       1.5026      1.00000
    260       1.5026      1.00000
    261       1.6221      1.00000
    262       1.6221      1.00000
    263       1.6222      1.00000
    264       1.6222      1.00000
    265       1.8665      1.00000
    266       1.8665      1.00000
    267       1.8729      1.00000
    268       1.8729      1.00000
    269       1.9386      1.00000
    270       1.9386      1.00000
    271       1.9416      1.00000
    272       1.9416      1.00000
    273       1.9529      1.00000
    274       1.9529      1.00000
    275       1.9529      1.00000
    276       1.9529      1.00000
    277       1.9627      1.00000
    278       1.9627      1.00000
    279       1.9935      1.00000
    280       1.9935      1.00000
    281       2.0095      1.00000
    282       2.0095      1.00000
    283       2.0095      1.00000
    284       2.0095      1.00000
    285       2.1012      1.00000
    286       2.1012      1.00000
    287       2.1012      1.00000
    288       2.1012      1.00000
    289       2.2092      1.00000
    290       2.2092      1.00000
    291       2.2754      1.00000
    292       2.2754      1.00000
    293       2.2755      1.00000
    294       2.2755      1.00000
    295       2.2833      1.00000
    296       2.2833      1.00000
    297       2.3093      1.00000
    298       2.3093      1.00000
    299       2.4220      1.00017
    300       2.4220      1.00017
    301       2.4353      1.00034
    302       2.4353      1.00034
    303       2.4691      1.00163
    304       2.4691      1.00163
    305       2.4710      1.00177
    306       2.4710      1.00177
    307       2.4710      1.00177
    308       2.4710      1.00177
    309       2.4718      1.00183
    310       2.4718      1.00183
    311       2.6753      0.78363
    312       2.6753      0.78363
    313       2.7036      0.56469
    314       2.7036      0.56465
    315       2.7225      0.40522
    316       2.7225      0.40522
    317       2.7226      0.40494
    318       2.7226      0.40494
    319       2.7740      0.06807
    320       2.7740      0.06806
    321       2.7740      0.06797
    322       2.7740      0.06796
    323       2.7838      0.03151
    324       2.7838      0.03149
    325       2.8370     -0.03530
    326       2.8370     -0.03530
    327       2.8500     -0.03221
    328       2.8500     -0.03221
    329       2.8581     -0.02901
    330       2.8582     -0.02901
    331       2.9231     -0.00535
    332       2.9231     -0.00535
    333       3.0207     -0.00005
    334       3.0207     -0.00005
    335       3.0207     -0.00005
    336       3.0207     -0.00005
    337       3.0995     -0.00000
    338       3.0995     -0.00000
    339       3.0995     -0.00000
    340       3.0995     -0.00000
    341       3.1861     -0.00000
    342       3.1861     -0.00000
    343       3.1861     -0.00000
    344       3.1861     -0.00000
    345       3.6536     -0.00000
    346       3.6536     -0.00000
    347       3.7091     -0.00000
    348       3.7091     -0.00000
    349       3.8172     -0.00000
    350       3.8172     -0.00000
    351       3.8172     -0.00000
    352       3.8172     -0.00000
    353       4.5678     -0.00000
    354       4.5678     -0.00000
    355       4.9939     -0.00000
    356       4.9939     -0.00000
    357       5.2881     -0.00000
    358       5.2881     -0.00000
    359       5.2881     -0.00000
    360       5.2881     -0.00000
    361       5.7307      0.00000
    362       5.7307      0.00000
    363       5.7308      0.00000
    364       5.7308      0.00000
    365       5.8189      0.00000
    366       5.8189      0.00000
    367       5.8189      0.00000
    368       5.8189      0.00000
    369       6.0261      0.00000
    370       6.0261      0.00000
    371       6.4060      0.00000
    372       6.4060      0.00000
    373       6.4060      0.00000
    374       6.4060      0.00000
    375       6.8080      0.00000
    376       6.8080      0.00000
    377       7.9572      0.00000
    378       7.9572      0.00000
    379       7.9572      0.00000
    380       7.9572      0.00000
    381       8.0499      0.00000
    382       8.0499      0.00000
    383       8.1993      0.00000
    384       8.1993      0.00000
    385       8.5176      0.00000
    386       8.5179      0.00000
    387       8.6649      0.00000
    388       8.6649      0.00000
    389       8.8871      0.00000
    390       8.8871      0.00000
    391       9.0624      0.00000
    392       9.0624      0.00000
    393       9.0642      0.00000
    394       9.0642      0.00000
    395       9.0642      0.00000
    396       9.0642      0.00000
    397       9.0954      0.00000
    398       9.0954      0.00000
    399       9.4531      0.00000
    400       9.4531      0.00000
    401       9.6023      0.00000
    402       9.6023      0.00000
    403       9.7663      0.00000
    404       9.7663      0.00000
    405       9.7673      0.00000
    406       9.7682      0.00000
    407       9.8276      0.00000
    408       9.8276      0.00000
    409      10.3325      0.00000
    410      10.3370      0.00000
    411      10.4053      0.00000
    412      10.4069      0.00000
    413      10.4119      0.00000
    414      10.4216      0.00000
    415      10.4430      0.00000
    416      10.4463      0.00000
    417      10.4480      0.00000
    418      10.4485      0.00000
    419      10.4813      0.00000
    420      10.5850      0.00000

 k-point     3 :       0.5000    0.5000    0.0000
  band No.  band energies     occupation 
      1      -6.7202      1.00000
      2      -6.7201      1.00000
      3      -5.6383      1.00000
      4      -5.6383      1.00000
      5      -5.6116      1.00000
      6      -5.6116      1.00000
      7      -4.7441      1.00000
      8      -4.7441      1.00000
      9      -4.5813      1.00000
     10      -4.5813      1.00000
     11      -4.5733      1.00000
     12      -4.5732      1.00000
     13      -4.5307      1.00000
     14      -4.5307      1.00000
     15      -4.3512      1.00000
     16      -4.3512      1.00000
     17      -4.2183      1.00000
     18      -4.2183      1.00000
     19      -4.2183      1.00000
     20      -4.2183      1.00000
     21      -4.0321      1.00000
     22      -4.0321      1.00000
     23      -4.0321      1.00000
     24      -4.0321      1.00000
     25      -4.0058      1.00000
     26      -4.0058      1.00000
     27      -4.0058      1.00000
     28      -4.0058      1.00000
     29      -3.9662      1.00000
     30      -3.9662      1.00000
     31      -3.8161      1.00000
     32      -3.8161      1.00000
     33      -3.7176      1.00000
     34      -3.7176      1.00000
     35      -3.7176      1.00000
     36      -3.7176      1.00000
     37      -3.6775      1.00000
     38      -3.6775      1.00000
     39      -3.5567      1.00000
     40      -3.5567      1.00000
     41      -3.5567      1.00000
     42      -3.5567      1.00000
     43      -3.5384      1.00000
     44      -3.5384      1.00000
     45      -3.4832      1.00000
     46      -3.4832      1.00000
     47      -3.4832      1.00000
     48      -3.4832      1.00000
     49      -3.4144      1.00000
     50      -3.4144      1.00000
     51      -3.3942      1.00000
     52      -3.3942      1.00000
     53      -3.3942      1.00000
     54      -3.3942      1.00000
     55      -3.3399      1.00000
     56      -3.3399      1.00000
     57      -3.3399      1.00000
     58      -3.3399      1.00000
     59      -3.1309      1.00000
     60      -3.1309      1.00000
     61      -3.0118      1.00000
     62      -3.0118      1.00000
     63      -3.0118      1.00000
     64      -3.0118      1.00000
     65      -2.9413      1.00000
     66      -2.9413      1.00000
     67      -2.9243      1.00000
     68      -2.9243      1.00000
     69      -2.9243      1.00000
     70      -2.9243      1.00000
     71      -2.6946      1.00000
     72      -2.6946      1.00000
     73      -2.5070      1.00000
     74      -2.5070      1.00000
     75      -2.5070      1.00000
     76      -2.5070      1.00000
     77      -2.5012      1.00000
     78      -2.5012      1.00000
     79      -2.4807      1.00000
     80      -2.4807      1.00000
     81      -2.3497      1.00000
     82      -2.3497      1.00000
     83      -2.3497      1.00000
     84      -2.3497      1.00000
     85      -2.2252      1.00000
     86      -2.2252      1.00000
     87      -2.1377      1.00000
     88      -2.1377      1.00000
     89      -2.1216      1.00000
     90      -2.1216      1.00000
     91      -2.0932      1.00000
     92      -2.0932      1.00000
     93      -2.0547      1.00000
     94      -2.0547      1.00000
     95      -2.0091      1.00000
     96      -2.0091      1.00000
     97      -1.9409      1.00000
     98      -1.9409      1.00000
     99      -1.9185      1.00000
    100      -1.9185      1.00000
    101      -1.9185      1.00000
    102      -1.9185      1.00000
    103      -1.9045      1.00000
    104      -1.9045      1.00000
    105      -1.8732      1.00000
    106      -1.8732      1.00000
    107      -1.8732      1.00000
    108      -1.8732      1.00000
    109      -1.7544      1.00000
    110      -1.7544      1.00000
    111      -1.6627      1.00000
    112      -1.6627      1.00000
    113      -1.5725      1.00000
    114      -1.5725      1.00000
    115      -1.5725      1.00000
    116      -1.5725      1.00000
    117      -1.5713      1.00000
    118      -1.5713      1.00000
    119      -1.5713      1.00000
    120      -1.5713      1.00000
    121      -1.4715      1.00000
    122      -1.4715      1.00000
    123      -1.4633      1.00000
    124      -1.4633      1.00000
    125      -1.4197      1.00000
    126      -1.4197      1.00000
    127      -1.4137      1.00000
    128      -1.4137      1.00000
    129      -1.3636      1.00000
    130      -1.3636      1.00000
    131      -1.2071      1.00000
    132      -1.2071      1.00000
    133      -1.1536      1.00000
    134      -1.1536      1.00000
    135      -1.1343      1.00000
    136      -1.1343      1.00000
    137      -1.0951      1.00000
    138      -1.0951      1.00000
    139      -1.0753      1.00000
    140      -1.0753      1.00000
    141      -1.0753      1.00000
    142      -1.0753      1.00000
    143      -1.0098      1.00000
    144      -1.0098      1.00000
    145      -0.9052      1.00000
    146      -0.9052      1.00000
    147      -0.8028      1.00000
    148      -0.8028      1.00000
    149      -0.8028      1.00000
    150      -0.8028      1.00000
    151      -0.7890      1.00000
    152      -0.7890      1.00000
    153      -0.7890      1.00000
    154      -0.7890      1.00000
    155      -0.7831      1.00000
    156      -0.7831      1.00000
    157      -0.7466      1.00000
    158      -0.7466      1.00000
    159      -0.7466      1.00000
    160      -0.7466      1.00000
    161      -0.7412      1.00000
    162      -0.7412      1.00000
    163      -0.5796      1.00000
    164      -0.5796      1.00000
    165      -0.5378      1.00000
    166      -0.5378      1.00000
    167      -0.5378      1.00000
    168      -0.5378      1.00000
    169      -0.5158      1.00000
    170      -0.5158      1.00000
    171      -0.4304      1.00000
    172      -0.4304      1.00000
    173      -0.2933      1.00000
    174      -0.2933      1.00000
    175      -0.2450      1.00000
    176      -0.2450      1.00000
    177      -0.2210      1.00000
    178      -0.2210      1.00000
    179      -0.2210      1.00000
    180      -0.2210      1.00000
    181      -0.1658      1.00000
    182      -0.1658      1.00000
    183      -0.1009      1.00000
    184      -0.1009      1.00000
    185      -0.0590      1.00000
    186      -0.0590      1.00000
    187      -0.0590      1.00000
    188      -0.0590      1.00000
    189       0.0634      1.00000
    190       0.0634      1.00000
    191       0.0634      1.00000
    192       0.0634      1.00000
    193       0.0649      1.00000
    194       0.0649      1.00000
    195       0.0694      1.00000
    196       0.0694      1.00000
    197       0.1325      1.00000
    198       0.1325      1.00000
    199       0.1601      1.00000
    200       0.1602      1.00000
    201       0.1910      1.00000
    202       0.1910      1.00000
    203       0.5038      1.00000
    204       0.5038      1.00000
    205       0.5038      1.00000
    206       0.5038      1.00000
    207       0.5057      1.00000
    208       0.5057      1.00000
    209       0.5063      1.00000
    210       0.5063      1.00000
    211       0.6945      1.00000
    212       0.6945      1.00000
    213       0.7312      1.00000
    214       0.7312      1.00000
    215       0.7312      1.00000
    216       0.7312      1.00000
    217       0.7810      1.00000
    218       0.7810      1.00000
    219       0.8320      1.00000
    220       0.8320      1.00000
    221       0.8469      1.00000
    222       0.8469      1.00000
    223       0.8469      1.00000
    224       0.8469      1.00000
    225       0.8511      1.00000
    226       0.8511      1.00000
    227       0.9405      1.00000
    228       0.9405      1.00000
    229       0.9645      1.00000
    230       0.9645      1.00000
    231       0.9709      1.00000
    232       0.9709      1.00000
    233       0.9709      1.00000
    234       0.9709      1.00000
    235       0.9983      1.00000
    236       0.9983      1.00000
    237       1.0153      1.00000
    238       1.0153      1.00000
    239       1.1221      1.00000
    240       1.1221      1.00000
    241       1.1221      1.00000
    242       1.1221      1.00000
    243       1.1391      1.00000
    244       1.1391      1.00000
    245       1.2880      1.00000
    246       1.2880      1.00000
    247       1.3280      1.00000
    248       1.3280      1.00000
    249       1.4057      1.00000
    250       1.4057      1.00000
    251       1.4540      1.00000
    252       1.4540      1.00000
    253       1.4650      1.00000
    254       1.4650      1.00000
    255       1.4650      1.00000
    256       1.4650      1.00000
    257       1.5026      1.00000
    258       1.5026      1.00000
    259       1.5026      1.00000
    260       1.5026      1.00000
    261       1.6221      1.00000
    262       1.6221      1.00000
    263       1.6221      1.00000
    264       1.6221      1.00000
    265       1.8665      1.00000
    266       1.8665      1.00000
    267       1.8729      1.00000
    268       1.8729      1.00000
    269       1.9386      1.00000
    270       1.9386      1.00000
    271       1.9416      1.00000
    272       1.9416      1.00000
    273       1.9529      1.00000
    274       1.9529      1.00000
    275       1.9529      1.00000
    276       1.9529      1.00000
    277       1.9627      1.00000
    278       1.9627      1.00000
    279       1.9935      1.00000
    280       1.9935      1.00000
    281       2.0095      1.00000
    282       2.0095      1.00000
    283       2.0095      1.00000
    284       2.0095      1.00000
    285       2.1012      1.00000
    286       2.1012      1.00000
    287       2.1012      1.00000
    288       2.1012      1.00000
    289       2.2092      1.00000
    290       2.2092      1.00000
    291       2.2755      1.00000
    292       2.2755      1.00000
    293       2.2755      1.00000
    294       2.2755      1.00000
    295       2.2833      1.00000
    296       2.2833      1.00000
    297       2.3093      1.00000
    298       2.3093      1.00000
    299       2.4221      1.00017
    300       2.4221      1.00017
    301       2.4353      1.00034
    302       2.4353      1.00034
    303       2.4691      1.00163
    304       2.4691      1.00163
    305       2.4710      1.00177
    306       2.4710      1.00177
    307       2.4710      1.00177
    308       2.4710      1.00177
    309       2.4718      1.00183
    310       2.4718      1.00183
    311       2.6753      0.78345
    312       2.6753      0.78345
    313       2.7036      0.56457
    314       2.7036      0.56455
    315       2.7226      0.40489
    316       2.7226      0.40488
    317       2.7226      0.40488
    318       2.7226      0.40488
    319       2.7740      0.06789
    320       2.7740      0.06789
    321       2.7740      0.06788
    322       2.7740      0.06788
    323       2.7838      0.03141
    324       2.7838      0.03140
    325       2.8370     -0.03530
    326       2.8370     -0.03530
    327       2.8501     -0.03220
    328       2.8501     -0.03220
    329       2.8582     -0.02901
    330       2.8582     -0.02901
    331       2.9231     -0.00535
    332       2.9231     -0.00535
    333       3.0207     -0.00005
    334       3.0207     -0.00005
    335       3.0207     -0.00005
    336       3.0207     -0.00005
    337       3.0995     -0.00000
    338       3.0995     -0.00000
    339       3.0995     -0.00000
    340       3.0995     -0.00000
    341       3.1860     -0.00000
    342       3.1860     -0.00000
    343       3.1860     -0.00000
    344       3.1860     -0.00000
    345       3.6536     -0.00000
    346       3.6536     -0.00000
    347       3.7091     -0.00000
    348       3.7091     -0.00000
    349       3.8172     -0.00000
    350       3.8172     -0.00000
    351       3.8172     -0.00000
    352       3.8172     -0.00000
    353       4.5678     -0.00000
    354       4.5678     -0.00000
    355       4.9939     -0.00000
    356       4.9939     -0.00000
    357       5.2881     -0.00000
    358       5.2881     -0.00000
    359       5.2881     -0.00000
    360       5.2881     -0.00000
    361       5.7307      0.00000
    362       5.7307      0.00000
    363       5.7307      0.00000
    364       5.7307      0.00000
    365       5.8189      0.00000
    366       5.8189      0.00000
    367       5.8189      0.00000
    368       5.8189      0.00000
    369       6.0260      0.00000
    370       6.0260      0.00000
    371       6.4060      0.00000
    372       6.4060      0.00000
    373       6.4060      0.00000
    374       6.4060      0.00000
    375       6.8080      0.00000
    376       6.8080      0.00000
    377       7.9572      0.00000
    378       7.9572      0.00000
    379       7.9572      0.00000
    380       7.9572      0.00000
    381       8.0499      0.00000
    382       8.0499      0.00000
    383       8.1993      0.00000
    384       8.1993      0.00000
    385       8.5176      0.00000
    386       8.5181      0.00000
    387       8.6649      0.00000
    388       8.6651      0.00000
    389       8.8871      0.00000
    390       8.8871      0.00000
    391       9.0624      0.00000
    392       9.0624      0.00000
    393       9.0642      0.00000
    394       9.0642      0.00000
    395       9.0642      0.00000
    396       9.0642      0.00000
    397       9.0954      0.00000
    398       9.0954      0.00000
    399       9.4530      0.00000
    400       9.4530      0.00000
    401       9.6023      0.00000
    402       9.6023      0.00000
    403       9.7663      0.00000
    404       9.7664      0.00000
    405       9.7669      0.00000
    406       9.7717      0.00000
    407       9.8276      0.00000
    408       9.8283      0.00000
    409      10.3357      0.00000
    410      10.3479      0.00000
    411      10.4055      0.00000
    412      10.4060      0.00000
    413      10.4115      0.00000
    414      10.4218      0.00000
    415      10.4364      0.00000
    416      10.4449      0.00000
    417      10.4481      0.00000
    418      10.4482      0.00000
    419      10.4614      0.00000
    420      10.7141      0.00000


--------------------------------------------------------------------------------------------------------


 soft charge-density along one line, spin component           1
         0         1         2         3         4         5         6         7         8         9
 total charge-density along one line
 
 soft charge-density along one line, spin component           2
         0         1         2         3         4         5         6         7         8         9
 total charge-density along one line
 
 pseudopotential strength for first ion, spin component:           1
 -5.739   0.000   0.000   0.008   0.000  -5.863   0.000   0.000
  0.000  -5.545  -0.000  -0.000   0.008   0.000  -5.674  -0.000
  0.000  -0.000  -5.532   0.000  -0.000   0.000  -0.000  -5.662
  0.008  -0.000   0.000  -5.545   0.000   0.007  -0.000   0.000
  0.000   0.008  -0.000   0.000  -5.739   0.000   0.007  -0.000
 -5.863   0.000   0.000   0.007   0.000  -5.971   0.000   0.000
  0.000  -5.674  -0.000  -0.000   0.007   0.000  -5.786  -0.000
  0.000  -0.000  -5.662   0.000  -0.000   0.000  -0.000  -5.774
  0.007  -0.000   0.000  -5.674   0.000   0.007  -0.000   0.000
  0.000   0.007  -0.000   0.000  -5.863   0.000   0.007  -0.000
  0.000   0.000  -0.057  -0.000  -0.000   0.000   0.000  -0.056
  0.000   0.000  -0.084  -0.000  -0.000   0.000   0.000  -0.083
  0.000   0.001  -0.000  -0.000  -0.000   0.000   0.002  -0.000
 -0.000   0.000  -0.002   0.000   0.000  -0.000   0.000  -0.002
 -0.000  -0.000  -0.000   0.001   0.000  -0.000  -0.000  -0.000
  0.000   0.003  -0.000  -0.000  -0.000   0.000   0.004  -0.000
 -0.000   0.000  -0.001   0.000   0.000  -0.000   0.000  -0.001
 -0.000  -0.000  -0.000   0.003   0.000  -0.000  -0.000  -0.000
 pseudopotential strength for first ion, spin component:           2
 -5.707   0.000   0.000   0.005  -0.000  -5.832   0.000   0.000
  0.000  -5.502  -0.000  -0.000   0.005   0.000  -5.632  -0.000
  0.000  -0.000  -5.485   0.000  -0.000   0.000  -0.000  -5.616
  0.005  -0.000   0.000  -5.502   0.000   0.005  -0.000   0.000
 -0.000   0.005  -0.000   0.000  -5.707  -0.000   0.005  -0.000
 -5.832   0.000   0.000   0.005  -0.000  -5.940   0.000   0.000
  0.000  -5.632  -0.000  -0.000   0.005   0.000  -5.746  -0.000
  0.000  -0.000  -5.616   0.000  -0.000   0.000  -0.000  -5.730
  0.005  -0.000   0.000  -5.632   0.000   0.005  -0.000   0.000
 -0.000   0.005  -0.000   0.000  -5.832  -0.000   0.005  -0.000
  0.000   0.000  -0.063  -0.000   0.000   0.000   0.000  -0.062
  0.000   0.000  -0.093  -0.000   0.000   0.000   0.000  -0.092
  0.000   0.001  -0.000   0.000  -0.000   0.000   0.002  -0.000
  0.000   0.000  -0.002   0.000   0.000   0.000   0.000  -0.002
 -0.000   0.000  -0.000   0.001   0.000  -0.000   0.000  -0.000
  0.000   0.003  -0.000   0.000  -0.001   0.000   0.004  -0.000
  0.000   0.000  -0.002   0.000   0.000   0.000   0.000  -0.002
 -0.001   0.000  -0.000   0.003   0.000  -0.001   0.000  -0.000
 total augmentation occupancy for first ion, spin component:           1
  3.202   0.000  -0.000   0.081   0.000  -2.594  -0.000   0.000   0.020  -0.000   0.000   0.000  -0.000   0.000   0.042   0.000
  0.000   4.792  -0.000  -0.000   0.081  -0.000  -2.848   0.000   0.000   0.011  -0.000   0.000  -0.227   0.000   0.000   0.019
 -0.000  -0.000   4.892   0.000   0.000   0.000   0.000  -3.366  -0.000  -0.000   1.498  -0.300   0.000  -0.321  -0.000  -0.000
  0.081  -0.000   0.000   4.792   0.000   0.011   0.000  -0.000  -2.848  -0.000   0.000  -0.000   0.000  -0.000  -0.227  -0.000
  0.000   0.081   0.000   0.000   3.202  -0.000   0.020  -0.000  -0.000  -2.594  -0.000  -0.000   0.042  -0.000  -0.000  -0.002
 -2.594  -0.000   0.000   0.011  -0.000   3.564   0.000  -0.000  -0.084   0.000  -0.000   0.000   0.000  -0.000  -0.039   0.000
 -0.000  -2.848   0.000   0.000   0.020   0.000   2.779  -0.000  -0.000  -0.084   0.000   0.000   0.202  -0.000  -0.000  -0.015
  0.000   0.000  -3.366  -0.000  -0.000  -0.000  -0.000   3.628   0.000   0.000  -1.335   0.217  -0.000   0.356   0.000   0.000
  0.020   0.000  -0.000  -2.848  -0.000  -0.084  -0.000   0.000   2.779   0.000  -0.000  -0.000  -0.000   0.000   0.202   0.000
 -0.000   0.011  -0.000  -0.000  -2.594   0.000  -0.084   0.000   0.000   3.564   0.000  -0.000  -0.039   0.000   0.000   0.002
  0.000  -0.000   1.498   0.000  -0.000  -0.000   0.000  -1.335  -0.000   0.000   2.565  -0.536   0.000   0.147  -0.000  -0.000
  0.000   0.000  -0.300  -0.000  -0.000   0.000   0.000   0.217  -0.000  -0.000  -0.536   0.141   0.000  -0.063  -0.000   0.000
 -0.000  -0.227   0.000   0.000   0.042   0.000   0.202  -0.000  -0.000  -0.039   0.000   0.000   0.347   0.000  -0.000  -0.017
  0.000   0.000  -0.321  -0.000  -0.000  -0.000  -0.000   0.356   0.000   0.000   0.147  -0.063   0.000   0.162  -0.000   0.000
  0.042   0.000  -0.000  -0.227  -0.000  -0.039  -0.000   0.000   0.202   0.000  -0.000  -0.000  -0.000  -0.000   0.347   0.000
  0.000   0.019  -0.000  -0.000  -0.002   0.000  -0.015   0.000   0.000   0.002  -0.000   0.000  -0.017   0.000   0.000   0.001
 -0.000  -0.000   0.014   0.000   0.000   0.000   0.000  -0.020  -0.000  -0.000  -0.013   0.005  -0.000  -0.009   0.000   0.000
 -0.002  -0.000   0.000   0.019   0.000   0.002   0.000  -0.000  -0.015   0.000   0.000  -0.000   0.000  -0.000  -0.017  -0.000
 total augmentation occupancy for first ion, spin component:           2
  0.165  -0.000  -0.000  -0.051  -0.000  -0.098   0.000   0.000   0.030   0.000  -0.000   0.000   0.000   0.000  -0.001  -0.000
 -0.000   0.353   0.000   0.000  -0.051   0.000  -0.220  -0.000  -0.000   0.034   0.000   0.000   0.007  -0.000  -0.000   0.000
 -0.000   0.000   0.356  -0.000   0.000   0.000  -0.000  -0.207   0.000  -0.000   0.057   0.018  -0.000  -0.028   0.000   0.000
 -0.051   0.000  -0.000   0.353  -0.000   0.034  -0.000   0.000  -0.220   0.000  -0.000  -0.000  -0.000   0.000   0.007   0.000
 -0.000  -0.051   0.000  -0.000   0.165   0.000   0.030  -0.000   0.000  -0.098   0.000  -0.000  -0.001  -0.000   0.000  -0.000
 -0.098   0.000   0.000   0.034   0.000   0.048  -0.000  -0.000  -0.019  -0.000   0.000   0.000  -0.000  -0.000   0.000   0.000
  0.000  -0.220  -0.000  -0.000   0.030  -0.000   0.130   0.000   0.000  -0.019  -0.000  -0.000  -0.005   0.000   0.000  -0.000
  0.000  -0.000  -0.207   0.000  -0.000  -0.000   0.000   0.111  -0.000   0.000  -0.038  -0.008   0.000   0.015  -0.000  -0.000
  0.030  -0.000   0.000  -0.220   0.000  -0.019   0.000  -0.000   0.130  -0.000   0.000   0.000   0.000  -0.000  -0.005  -0.000
  0.000   0.034  -0.000   0.000  -0.098  -0.000  -0.019   0.000  -0.000   0.048  -0.000  -0.000   0.000   0.000  -0.000   0.000
 -0.000   0.000   0.057  -0.000   0.000   0.000  -0.000  -0.038   0.000  -0.000   0.000   0.009  -0.000  -0.010   0.000   0.000
  0.000   0.000   0.018  -0.000  -0.000   0.000  -0.000  -0.008   0.000  -0.000   0.009  -0.002   0.000   0.000  -0.000   0.000
  0.000   0.007  -0.000  -0.000  -0.001  -0.000  -0.005   0.000   0.000   0.000  -0.000   0.000  -0.001   0.000   0.000   0.000
  0.000  -0.000  -0.028   0.000  -0.000  -0.000   0.000   0.015  -0.000   0.000  -0.010   0.000   0.000   0.003  -0.000  -0.000
 -0.001  -0.000   0.000   0.007   0.000   0.000   0.000  -0.000  -0.005  -0.000   0.000  -0.000   0.000  -0.000  -0.001  -0.000
 -0.000   0.000   0.000   0.000  -0.000   0.000  -0.000  -0.000  -0.000   0.000   0.000   0.000   0.000  -0.000  -0.000  -0.000
 -0.000   0.000  -0.000  -0.000   0.000   0.000  -0.000  -0.000   0.000  -0.000   0.000  -0.000  -0.000  -0.000   0.000   0.000
 -0.000   0.000  -0.000   0.000  -0.000   0.000  -0.000   0.000  -0.000   0.000  -0.000  -0.000  -0.000   0.000   0.000   0.000


------------------------ aborting loop because EDIFF is reached ----------------------------------------


    CHARGE:  cpu time    2.8564: real time    2.8642
    FORLOC:  cpu time    0.0647: real time    0.0648
    FORNL :  cpu time    9.3071: real time    9.3326
    STRESS:  cpu time   27.7901: real time   27.8666
    FORCOR:  cpu time    0.4279: real time    0.4292
    FORHAR:  cpu time    0.1017: real time    0.1022
    MIXING:  cpu time    0.0157: real time    0.0158
    OFIELD:  cpu time    0.0001: real time    0.0001

 ---------------------------------------------------------------------------------------------

         DFTD3 V3.0 Rev 1        
 IVDW         = 11
 DF pbe       
 parameters
 VDW_S6       =    1.0000
 VDW_S8       =    0.7220
 VDW_SR       =    1.2170
 rs18     =    1.0000
 alpha6   =   14.0000
 alpha8   =   16.0000
 k1-k3    =   16.0000    1.3333   -4.0000
 VDW_RADIUS   =   50.2022 A
 VDW_CNRADIUS =   21.1671 A
 Edisp (eV)  -38.69807

 E6    (eV) :   -14.2567
 E8    (eV) :   -24.4414
 % E8        : 63.16
    FORVDW:  cpu time    0.3091: real time    0.3104

  FORCE on cell =-STRESS in cart. coord.  units (eV):
  Direction    XX          YY          ZZ          XY          YZ          ZX
  --------------------------------------------------------------------------------------
  Alpha Z  2015.86452  2015.86452  2015.86452
  Ewald  163260.30494163260.32347************     0.01605     0.00916    -0.01588
  Hartree174140.07765174140.08277************     0.00443     0.00177    -0.00306
  E(xc)   -2856.29486 -2856.29468 -2881.78652     0.00016     0.00012    -0.00020
  Local  ************************359550.25943    -0.01595    -0.00711     0.01232
  n-local   572.73720   586.63578   315.53621    -4.00979     2.92589     1.62967
  augment  3253.08011  3253.07726  3532.95159    -0.00247    -0.00149     0.00256
  Kinetic  9195.46403  9106.85962  9741.43203    25.57147     7.68860     4.44642
  Fock        0.00000     0.00000     0.00000     0.00000     0.00000     0.00000
  vdW       -53.55119   -53.55147   -28.88451    -0.00024     0.00006    -0.00010
  -------------------------------------------------------------------------------------
  Total      82.95267    82.95146     0.18766    -0.00105    -0.00052     0.00090
  in kB      68.81014    68.80914     0.15566    -0.00087    -0.00043     0.00074
  external pressure =       45.92 kB  Pullay stress =        0.00 kB


 VOLUME and BASIS-vectors are now :
 -----------------------------------------------------------------------------
  energy-cutoff  :      550.00
  volume of cell :     1931.47
      direct lattice vectors                 reciprocal lattice vectors
    10.560000420  0.000000000  0.000000000     0.094696966  0.054673319  0.000000000
    -5.280000210  9.145228627  0.000000000     0.000000000  0.109346638  0.000000000
     0.000000000  0.000000000 20.000000000     0.000000000  0.000000000  0.050000000

  length of vectors
    10.560000420 10.560000420 20.000000000     0.109346638  0.109346638  0.050000000


 FORCES acting on ions
    electron-ion (+dipol)            ewald-force                    non-local-force                 convergence-correction
 -----------------------------------------------------------------------------------------------
   0.935E-05 0.598E-04 0.231E+04   -.796E-04 -.164E-03 -.231E+04   -.353E-04 0.204E-04 -.106E+00   -.118E-06 0.690E-07 -.289E-01
   -.454E-03 0.328E-03 0.780E+03   0.256E-03 -.326E-03 -.780E+03   0.932E-05 -.538E-05 -.405E+00   0.111E-06 -.871E-07 -.279E-01
   0.527E-03 -.245E-03 -.780E+03   -.461E-03 0.170E-03 0.780E+03   -.932E-05 0.538E-05 0.405E+00   -.136E-06 0.362E-07 0.279E-01
   0.364E-04 0.370E-04 -.231E+04   -.376E-04 -.166E-03 0.231E+04   0.353E-04 -.204E-04 0.106E+00   0.106E-06 -.752E-07 0.289E-01
   0.144E-04 0.419E-04 0.231E+04   -.994E-04 -.681E-04 -.231E+04   -.353E-04 0.204E-04 -.106E+00   -.112E-06 0.687E-07 -.289E-01
   -.444E-03 0.317E-03 0.780E+03   0.291E-03 -.327E-03 -.780E+03   0.932E-05 -.538E-05 -.405E+00   0.104E-06 -.696E-07 -.279E-01
   0.513E-03 -.240E-03 -.780E+03   -.422E-03 0.124E-03 0.780E+03   -.932E-05 0.538E-05 0.405E+00   -.138E-06 0.452E-07 0.279E-01
   0.434E-04 0.235E-04 -.231E+04   -.636E-04 -.835E-04 0.231E+04   0.353E-04 -.204E-04 0.106E+00   0.118E-06 -.661E-07 0.289E-01
   0.156E-04 0.430E-04 0.231E+04   -.103E-03 -.718E-04 -.231E+04   -.353E-04 0.204E-04 -.106E+00   -.103E-06 0.818E-07 -.289E-01
   -.447E-03 0.323E-03 0.780E+03   0.301E-03 -.346E-03 -.780E+03   0.932E-05 -.538E-05 -.405E+00   0.115E-06 -.511E-07 -.279E-01
   0.492E-03 -.228E-03 -.780E+03   -.417E-03 0.845E-04 0.780E+03   -.932E-05 0.538E-05 0.405E+00   -.105E-06 0.635E-07 0.279E-01
   0.371E-04 0.237E-04 -.231E+04   -.431E-04 -.842E-04 0.231E+04   0.353E-04 -.204E-04 0.106E+00   0.107E-06 -.577E-07 0.289E-01
   0.499E-05 0.686E-04 0.231E+04   -.652E-04 -.193E-03 -.231E+04   -.353E-04 0.204E-04 -.106E+00   -.103E-06 0.767E-07 -.289E-01
   -.457E-03 0.319E-03 0.780E+03   0.296E-03 -.297E-03 -.780E+03   0.932E-05 -.538E-05 -.405E+00   0.121E-06 -.795E-07 -.279E-01
   0.511E-03 -.243E-03 -.780E+03   -.410E-03 0.163E-03 0.780E+03   -.932E-05 0.538E-05 0.405E+00   -.108E-06 0.490E-07 0.279E-01
   0.243E-04 0.417E-04 -.231E+04   0.157E-05 -.181E-03 0.231E+04   0.353E-04 -.204E-04 0.106E+00   0.107E-06 -.759E-07 0.289E-01
   -.124E-04 0.559E-04 0.231E+04   -.908E-05 -.152E-03 -.231E+04   -.353E-04 0.204E-04 -.106E+00   -.128E-06 0.618E-07 -.289E-01
   -.456E-03 0.292E-03 0.780E+03   0.522E-03 -.209E-03 -.780E+03   0.932E-05 -.538E-05 -.405E+00   0.934E-07 -.885E-07 -.279E-01
   0.482E-03 -.234E-03 -.780E+03   -.450E-03 0.134E-03 0.780E+03   -.932E-05 0.538E-05 0.405E+00   -.749E-07 0.666E-07 0.279E-01
   0.349E-04 0.410E-04 -.231E+04   -.328E-04 -.179E-03 0.231E+04   0.353E-04 -.204E-04 0.106E+00   0.142E-06 -.664E-07 0.289E-01
   0.504E-05 0.403E-04 0.231E+04   0.579E-05 -.632E-04 -.231E+04   -.353E-04 0.204E-04 -.106E+00   -.129E-06 0.659E-07 -.289E-01
   -.455E-03 0.301E-03 0.780E+03   0.586E-03 -.275E-03 -.780E+03   0.932E-05 -.538E-05 -.405E+00   0.996E-07 -.676E-07 -.279E-01
   0.470E-03 -.231E-03 -.780E+03   -.478E-03 0.946E-04 0.780E+03   -.932E-05 0.538E-05 0.405E+00   -.762E-07 0.804E-07 0.279E-01
   0.475E-04 0.354E-04 -.231E+04   -.230E-05 -.122E-03 0.231E+04   0.353E-04 -.204E-04 0.106E+00   0.131E-06 -.448E-07 0.289E-01
   -.554E-05 0.578E-05 0.231E+04   0.177E-03 0.496E-04 -.231E+04   -.353E-04 0.204E-04 -.106E+00   -.146E-06 0.510E-07 -.289E-01
   -.445E-03 0.264E-03 0.780E+03   0.554E-03 -.154E-03 -.780E+03   0.932E-05 -.538E-05 -.405E+00   0.100E-06 -.851E-07 -.279E-01
   0.493E-03 -.249E-03 -.780E+03   -.420E-03 0.152E-03 0.780E+03   -.932E-05 0.538E-05 0.405E+00   -.984E-07 0.672E-07 0.279E-01
   0.473E-04 0.559E-06 -.231E+04   0.136E-03 -.837E-05 0.231E+04   0.353E-04 -.204E-04 0.106E+00   0.139E-06 -.564E-07 0.289E-01
   -.125E-04 0.255E-04 0.231E+04   0.135E-03 -.527E-04 -.231E+04   -.353E-04 0.204E-04 -.106E+00   -.142E-06 0.519E-07 -.289E-01
   -.459E-03 0.293E-03 0.780E+03   0.659E-03 -.214E-03 -.780E+03   0.932E-05 -.538E-05 -.405E+00   0.928E-07 -.940E-07 -.279E-01
   0.497E-03 -.246E-03 -.780E+03   -.364E-03 0.172E-03 0.780E+03   -.932E-05 0.538E-05 0.405E+00   -.966E-07 0.560E-07 0.279E-01
   0.383E-04 0.139E-04 -.231E+04   0.999E-04 -.900E-04 0.231E+04   0.353E-04 -.204E-04 0.106E+00   0.139E-06 -.676E-07 0.289E-01
   0.136E-04 0.569E-04 0.231E+04   -.904E-04 -.848E-04 -.231E+04   -.353E-04 0.204E-04 -.106E+00   -.114E-06 0.922E-07 -.289E-01
   -.437E-03 0.280E-03 0.780E+03   0.329E-03 -.171E-03 -.780E+03   0.932E-05 -.538E-05 -.405E+00   0.958E-07 -.362E-07 -.279E-01
   0.491E-03 -.261E-03 -.780E+03   -.351E-03 0.292E-03 0.780E+03   -.932E-05 0.538E-05 0.405E+00   -.137E-06 0.435E-07 0.279E-01
   0.424E-04 0.227E-04 -.231E+04   -.546E-04 -.492E-04 0.231E+04   0.353E-04 -.204E-04 0.106E+00   0.120E-06 -.728E-07 0.289E-01
   -.144E-04 0.342E-04 0.231E+04   -.709E-04 0.168E-03 -.231E+04   -.353E-04 0.204E-04 -.106E+00   -.118E-06 0.759E-07 -.289E-01
   -.457E-03 0.335E-03 0.780E+03   0.328E-03 -.449E-03 -.780E+03   0.932E-05 -.538E-05 -.405E+00   0.105E-06 -.476E-07 -.279E-01
   0.475E-03 -.276E-03 -.780E+03   -.430E-03 0.435E-03 0.780E+03   -.932E-05 0.538E-05 0.405E+00   -.136E-06 0.413E-07 0.279E-01
   0.128E-04 0.643E-05 -.231E+04   -.294E-04 0.183E-03 0.231E+04   0.353E-04 -.204E-04 0.106E+00   0.107E-06 -.917E-07 0.289E-01
   -.151E-04 0.315E-04 0.231E+04   -.683E-04 0.177E-03 -.231E+04   -.353E-04 0.204E-04 -.106E+00   -.102E-06 0.807E-07 -.289E-01
   -.460E-03 0.311E-03 0.780E+03   0.339E-03 -.372E-03 -.780E+03   0.932E-05 -.538E-05 -.405E+00   0.125E-06 -.446E-07 -.279E-01
   0.465E-03 -.282E-03 -.780E+03   -.460E-03 0.454E-03 0.780E+03   -.932E-05 0.538E-05 0.405E+00   -.116E-06 0.539E-07 0.279E-01
   0.841E-05 -.401E-05 -.231E+04   -.151E-04 0.217E-03 0.231E+04   0.353E-04 -.204E-04 0.106E+00   0.116E-06 -.994E-07 0.289E-01
   0.861E-05 0.494E-04 0.231E+04   -.739E-04 -.604E-04 -.231E+04   -.353E-04 0.204E-04 -.106E+00   -.101E-06 0.967E-07 -.289E-01
   -.462E-03 0.285E-03 0.780E+03   0.411E-03 -.188E-03 -.780E+03   0.932E-05 -.538E-05 -.405E+00   0.119E-06 -.288E-07 -.279E-01
   0.480E-03 -.259E-03 -.780E+03   -.441E-03 0.284E-03 0.780E+03   -.932E-05 0.538E-05 0.405E+00   -.108E-06 0.638E-07 0.279E-01
   0.319E-04 0.134E-04 -.231E+04   -.198E-04 -.187E-04 0.231E+04   0.353E-04 -.204E-04 0.106E+00   0.117E-06 -.753E-07 0.289E-01
   0.672E-05 0.325E-04 0.231E+04   -.684E-04 -.582E-05 -.231E+04   -.353E-04 0.204E-04 -.106E+00   -.131E-06 0.775E-07 -.289E-01
   -.458E-03 0.245E-03 0.780E+03   0.396E-03 -.591E-04 -.780E+03   0.932E-05 -.538E-05 -.405E+00   0.114E-06 -.432E-07 -.279E-01
   0.455E-03 -.257E-03 -.780E+03   -.496E-03 0.279E-03 0.780E+03   -.932E-05 0.538E-05 0.405E+00   -.788E-07 0.908E-07 0.279E-01
   0.485E-04 0.130E-04 -.231E+04   -.742E-04 -.175E-04 0.231E+04   0.353E-04 -.204E-04 0.106E+00   0.130E-06 -.585E-07 0.289E-01
   -.250E-04 0.177E-04 0.231E+04   -.367E-04 0.221E-03 -.231E+04   -.353E-04 0.204E-04 -.106E+00   -.133E-06 0.679E-07 -.289E-01
   -.457E-03 0.296E-03 0.780E+03   0.462E-03 -.323E-03 -.780E+03   0.932E-05 -.538E-05 -.405E+00   0.105E-06 -.453E-07 -.279E-01
   0.442E-03 -.277E-03 -.780E+03   -.518E-03 0.437E-03 0.780E+03   -.932E-05 0.538E-05 0.405E+00   -.735E-07 0.734E-07 0.279E-01
   0.208E-04 -.338E-05 -.231E+04   -.553E-04 0.215E-03 0.231E+04   0.353E-04 -.204E-04 0.106E+00   0.138E-06 -.836E-07 0.289E-01
   -.276E-04 -.113E-04 0.231E+04   0.109E-03 0.316E-03 -.231E+04   -.353E-04 0.204E-04 -.106E+00   -.143E-06 0.609E-07 -.289E-01
   -.461E-03 0.284E-03 0.780E+03   0.602E-03 -.284E-03 -.780E+03   0.932E-05 -.538E-05 -.405E+00   0.829E-07 -.465E-07 -.279E-01
   0.448E-03 -.272E-03 -.780E+03   -.405E-03 0.423E-03 0.780E+03   -.932E-05 0.538E-05 0.405E+00   -.962E-07 0.652E-07 0.279E-01
   0.191E-04 -.296E-04 -.231E+04   0.876E-04 0.300E-03 0.231E+04   0.353E-04 -.204E-04 0.106E+00   0.130E-06 -.786E-07 0.289E-01
   0.233E-05 0.163E-04 0.231E+04   0.227E-03 0.473E-04 -.231E+04   -.353E-04 0.204E-04 -.106E+00   -.144E-06 0.713E-07 -.289E-01
   -.450E-03 0.233E-03 0.780E+03   0.631E-03 -.182E-04 -.780E+03   0.932E-05 -.538E-05 -.405E+00   0.923E-07 -.484E-07 -.279E-01
   0.479E-03 -.267E-03 -.780E+03   -.438E-03 0.311E-03 0.780E+03   -.932E-05 0.538E-05 0.405E+00   -.939E-07 0.723E-07 0.279E-01
   0.465E-04 -.167E-06 -.231E+04   0.213E-03 0.257E-04 0.231E+04   0.353E-04 -.204E-04 0.106E+00   0.131E-06 -.579E-07 0.289E-01
 -----------------------------------------------------------------------------------------------
   0.969E-03 0.144E-02 0.550E-02   0.122E-13 0.355E-12 -.318E-11   0.355E-17 -.775E-17 0.161E-14   0.161E-07 0.267E-07 -.141E-04
 
 
 POSITION                                       TOTAL-FORCE (eV/Angst)
 -----------------------------------------------------------------------------------
     10.55998      0.00001      1.11585        -0.000060      0.000035     -0.004689
      2.63997      1.52422      3.55048        -0.000023      0.000013     -0.027382
      0.00003      3.04839      5.94592         0.000023     -0.000013      0.027382
     -5.27998      9.14521      8.38055         0.000060     -0.000035      0.004689
      9.23998      2.28632      1.11585        -0.000060      0.000035     -0.004689
      1.31997      3.81053      3.55048        -0.000023      0.000013     -0.027382
      1.32003      0.76209      5.94592         0.000023     -0.000013      0.027382
     -1.31998      2.28629      8.38055         0.000060     -0.000035      0.004689
      1.31998      2.28632      1.11585        -0.000060      0.000035     -0.004689
     -1.32003      3.81053      3.55048        -0.000023      0.000013     -0.027382
      3.96003      0.76209      5.94592         0.000023     -0.000013      0.027382
      1.32002      2.28629      8.38055         0.000060     -0.000035      0.004689
      2.63998      0.00001      1.11585        -0.000060      0.000035     -0.004689
     -0.00003      1.52422      3.55048        -0.000023      0.000013     -0.027382
      2.64003      3.04839      5.94592         0.000023     -0.000013      0.027382
     -2.63998      9.14521      8.38055         0.000060     -0.000035      0.004689
      5.27998      0.00001      1.11585        -0.000060      0.000035     -0.004689
      7.91997      1.52422      3.55048        -0.000023      0.000013     -0.027382
      5.28003      3.04839      5.94592         0.000023     -0.000013      0.027382
      0.00002      9.14521      8.38055         0.000060     -0.000035      0.004689
      3.95998      2.28632      1.11585        -0.000060      0.000035     -0.004689
      6.59997      3.81053      3.55048        -0.000023      0.000013     -0.027382
      6.60003      0.76209      5.94592         0.000023     -0.000013      0.027382
      3.96002      2.28629      8.38055         0.000060     -0.000035      0.004689
      6.59998      2.28632      1.11585        -0.000060      0.000035     -0.004689
      3.95997      3.81053      3.55048        -0.000023      0.000013     -0.027382
      9.24003      0.76209      5.94592         0.000023     -0.000013      0.027382
      6.60002      2.28629      8.38055         0.000060     -0.000035      0.004689
      7.91998      0.00001      1.11585        -0.000060      0.000035     -0.004689
      5.27997      1.52422      3.55048        -0.000023      0.000013     -0.027382
      7.92003      3.04839      5.94592         0.000023     -0.000013      0.027382
      2.64002      9.14521      8.38055         0.000060     -0.000035      0.004689
      7.91998      4.57263      1.11585        -0.000060      0.000035     -0.004689
     -0.00003      6.09683      3.55048        -0.000023      0.000013     -0.027382
     -2.63997      7.62101      5.94592         0.000023     -0.000013      0.027382
     -2.63998      4.57260      8.38055         0.000060     -0.000035      0.004689
      6.59998      6.85894      1.11585        -0.000060      0.000035     -0.004689
     -1.32003      8.38314      3.55048        -0.000023      0.000013     -0.027382
     -1.31997      5.33470      5.94592         0.000023     -0.000013      0.027382
     -3.95998      6.85891      8.38055         0.000060     -0.000035      0.004689
     -1.32002      6.85894      1.11585        -0.000060      0.000035     -0.004689
     -3.96003      8.38314      3.55048        -0.000023      0.000013     -0.027382
      1.32003      5.33470      5.94592         0.000023     -0.000013      0.027382
     -1.31998      6.85891      8.38055         0.000060     -0.000035      0.004689
     -0.00002      4.57263      1.11585        -0.000060      0.000035     -0.004689
     -2.64003      6.09683      3.55048        -0.000023      0.000013     -0.027382
      0.00003      7.62101      5.94592         0.000023     -0.000013      0.027382
      0.00002      4.57260      8.38055         0.000060     -0.000035      0.004689
      2.63998      4.57263      1.11585        -0.000060      0.000035     -0.004689
      5.27997      6.09683      3.55048        -0.000023      0.000013     -0.027382
      2.64003      7.62101      5.94592         0.000023     -0.000013      0.027382
      2.64002      4.57260      8.38055         0.000060     -0.000035      0.004689
      1.31998      6.85894      1.11585        -0.000060      0.000035     -0.004689
      3.95997      8.38314      3.55048        -0.000023      0.000013     -0.027382
      3.96003      5.33470      5.94592         0.000023     -0.000013      0.027382
      1.32002      6.85891      8.38055         0.000060     -0.000035      0.004689
      3.95998      6.85894      1.11585        -0.000060      0.000035     -0.004689
      1.31997      8.38314      3.55048        -0.000023      0.000013     -0.027382
      6.60003      5.33470      5.94592         0.000023     -0.000013      0.027382
      3.96002      6.85891      8.38055         0.000060     -0.000035      0.004689
      5.27998      4.57263      1.11585        -0.000060      0.000035     -0.004689
      2.63997      6.09683      3.55048        -0.000023      0.000013     -0.027382
      5.28003      7.62101      5.94592         0.000023     -0.000013      0.027382
      5.28002      4.57260      8.38055         0.000060     -0.000035      0.004689
 -----------------------------------------------------------------------------------
    total drift:                                0.000969      0.001440      0.005491


--------------------------------------------------------------------------------------------------------



  FREE ENERGIE OF THE ION-ELECTRON SYSTEM (eV)
  ---------------------------------------------------
  free  energy   TOTEN  =      -405.08622820 eV

  energy  without entropy=     -405.07036238  energy(sigma->0) =     -405.08093959
 


--------------------------------------------------------------------------------------------------------


    POTLOK:  cpu time    0.4050: real time    0.4062


--------------------------------------------------------------------------------------------------------




--------------------------------------------------------------------------------------------------------


  
 reached required accuracy - stopping structural energy minimisation
     LOOP+:  cpu time  785.9606: real time  788.1226
    4ORBIT:  cpu time    0.0000: real time    0.0000

 total amount of memory used by VASP MPI-rank0   178693. kBytes
=======================================================================

   base      :      30000. kBytes
   nonlr-proj:      30718. kBytes
   fftplans  :      17093. kBytes
   grid      :      42083. kBytes
   one-center:        497. kBytes
   wavefun   :      58302. kBytes
 
  
  
 General timing and accounting informations for this job:
 ========================================================
  
                  Total CPU time used (sec):      798.609
                            User time (sec):      796.032
                          System time (sec):        2.577
                         Elapsed time (sec):      803.071
  
                   Maximum memory used (kb):      501428.
                   Average memory used (kb):           0.
  
                          Minor page faults:       525567
                          Major page faults:            0
                 Voluntary context switches:         6820
